File: XRD_Tool/XRD_Tool/bin/Debug/20180602-log.txt
[2018-06-02 17:11:59 180]Log Start******************************************************

[2018-06-02 17:12:11 906] [UserLogin] login succeed!user=administrator,pwd=123456

[2018-06-02 17:12:12 015] [DeviceInit] Init Start
2F0D
[2018-06-02 17:12:12 015] UART Send: [/
]
0D0A433D
[2018-06-02 17:12:12 171] UART Recv: @1[
C=]
5246460D
[2018-06-02 17:12:12 171] UART Send: [RFF
]
5246460D0A2B2B3130310D0A433D
[2018-06-02 17:12:12 312] UART Recv: @1[RFF
++101
C=]
524B4D0D
[2018-06-02 17:12:12 312] UART Send: [RKM
]
524B4D0D30392E39330D200D30342E37390D0A433D
[2018-06-02 17:12:12 453] UART Recv: @1[RKM
09.93

04.79
C=]

[2018-06-02 17:12:13 163] [DeviceInit] warmup check=True

[2018-06-02 17:12:14 222] [DeviceInit] warmup confirm=False

[2018-06-02 17:12:14 222] [DeviceInit] warmup skip, GetDeviceZeroPoint
5041520D
[2018-06-02 17:12:14 222] UART Send: [PAR
]
5041520D0A4C574C33300D0A55504C37350D0A535045302E30320D0A535450302E30320D0A494E54302E30350D0A4D584E31300D0A4D5854310D0A4D5853302E3030350D0A4D4F44330D0A574156312E35343138340D0A54535A2034352E333530300D0A54445A2031392E333135300D0A0A433D
[2018-06-02 17:12:14 379] UART Recv: @1[PAR
LWL30
UPL75
SPE0.02
STP0.02
INT0.05
MXN10
MXT1
MXS0.005
MOD3
WAV1.54184
TSZ 45.3500
TDZ 19.3150

C=]
5041460D
[2018-06-02 17:12:14 379] UART Send: [PAF
]
5041460D
[2018-06-02 17:12:14 520] UART Recv: @1[PAF
]
0A5A54412D3030332E333634370D0A0A5A54422D3030312E313037390D0A0A5A54582D3035302E343033350D0A0A5A54592D3035302E383132350D0A0A5A545A2D3030352E303030300D0A0A5354503030302E303230300D0A0A494E543030312E303030300D0A0A535045303034380D0A0A433D
[2018-06-02 17:12:14 802] UART Recv: @1[
ZTA-003.3647

ZTB-001.1079

ZTX-050.4035

ZTY-050.8125

ZTZ-005.0000

STP000.0200

INT001.0000

SPE0048

C=]
534450310D
[2018-06-02 17:12:14 802] UART Send: [SDP1
]
534450310D
[2018-06-02 17:12:14 942] UART Recv: @1[SDP1
]
0A433D
[2018-06-02 17:12:15 083] UART Recv: @1[
C=]

[2018-06-02 17:12:15 083] [DeviceInit] Init Finish

[2018-06-02 17:12:16 317] [Parent] Menu Measure

[2018-06-02 17:12:16 472] [Measure] check 5 Axis=Unchecked

[2018-06-02 17:12:17 901] [Measure] ButtonStart

[2018-06-02 17:12:33 149] [Measure] ButtonStart

[2018-06-02 17:12:55 259] [Measure] Measure Start
2F0D
[2018-06-02 17:13:00 504] UART Send: [/
]
0D0A433D
[2018-06-02 17:13:00 579] UART Recv: @2[
C=]
4D4F44330D
[2018-06-02 17:13:01 390] UART Send: [MOD3
]
4D4F44330D0A4D4F44330D0A4D4F44330D0A433D
[2018-06-02 17:13:01 520] UART Recv: @2[MOD3
MOD3
MOD3
C=]
494E54302E30350D
[2018-06-02 17:13:02 249] UART Send: [INT0.05
]
494E54302E30350D0A494E54302E30350D0A494E54302E30350D0A433D
[2018-06-02 17:13:02 406] UART Recv: @2[INT0.05
INT0.05
INT0.05
C=]
535450302E30320D
[2018-06-02 17:13:03 141] UART Send: [STP0.02
]
535450302E30320D0A535450302E30320D0A535450302E30320D0A433D
[2018-06-02 17:13:03 281] UART Recv: @2[STP0.02
STP0.02
STP0.02
C=]
535441300D
[2018-06-02 17:13:04 079] UART Send: [STA0
]
535441300D
[2018-06-02 17:13:04 219] UART Recv: @2[STA0
]
0A433D202020302E303030300D0A433D
[2018-06-02 17:13:17 640] UART Recv: @2[
C=   0.0000
C=]
53414E3135300D
[2018-06-02 17:13:22 566] UART Send: [SAN150
]
53414E3135300D
[2018-06-02 17:13:22 629] UART Recv: @2[SAN150
]
0A433D
[2018-06-02 17:13:23 775] UART Recv: @2[
C=]
534B4D32352033300D
[2018-06-02 17:13:24 822] UART Send: [SKM25 30
]
534B4D32352033300D
[2018-06-02 17:13:24 962] UART Recv: @2[SKM25 30
]
0A433D
[2018-06-02 17:13:29 684] UART Recv: @2[
C=]
524B4D0D
[2018-06-02 17:13:31 584] UART Send: [RKM
]
524B4D0D32342E39360D200D33302E30320D0A433D
[2018-06-02 17:13:31 663] UART Recv: @2[RKM
24.96

30.02
C=]

[2018-06-02 17:13:31 663] [Measure] totalcount=251
53484F0D
[2018-06-02 17:13:32 689] UART Send: [SHO
]
53484F0D0A433D
[2018-06-02 17:13:32 845] UART Recv: @2[SHO
C=]
535343350D
[2018-06-02 17:13:35 696] UART Send: [SSC5
]

[2018-06-02 17:13:35 696] CountDown start[0,42]
535343350D0A203135302E303030302020202020203131390D
[2018-06-02 17:13:35 837] UART Recv: @2[SSC5
 150.0000      119
]

[2018-06-02 17:13:35 837] [Measure] analyzecount=1recvcount=1
0A203135302E303230302020202020203132310D0A203135302E303430302020202020203131330D
[2018-06-02 17:13:35 962] UART Recv: @2[
 150.0200      121
 150.0400      113
]
[2018-06-02 17:15:09 249]Log Start******************************************************

[2018-06-02 17:15:10 031] [UserLogin] login succeed!user=administrator,pwd=123456

[2018-06-02 17:15:10 156] [DeviceInit] Init Start
2F0D
[2018-06-02 17:15:11 850] UART Send: [/
]
0D0A433D
[2018-06-02 17:15:11 990] UART Recv: @1[
C=]
5246460D
[2018-06-02 17:15:13 366] UART Send: [RFF
]
5246460D0A2B2B3130310D0A433D
[2018-06-02 17:15:13 505] UART Recv: @1[RFF
++101
C=]
524B4D0D
[2018-06-02 17:15:14 196] UART Send: [RKM
]
524B4D0D32342E39360D200D33302E30320D0A433D
[2018-06-02 17:15:14 336] UART Recv: @1[RKM
24.96

30.02
C=]

[2018-06-02 17:15:16 155] [DeviceInit] warmup check=False

[2018-06-02 17:15:16 155] [DeviceInit] warmup skip, GetDeviceZeroPoint
5041520D
[2018-06-02 17:15:17 138] UART Send: [PAR
]
5041520D0A4C574C33300D0A55504C37350D0A535045302E30320D0A535450302E30320D0A494E54302E30350D0A4D584E31300D0A4D5854310D0A4D5853302E3030350D0A4D4F44330D0A574156312E35343138340D0A54535A2034352E333530300D0A54445A2031392E333135300D0A0A433D
[2018-06-02 17:15:17 279] UART Recv: @1[PAR
LWL30
UPL75
SPE0.02
STP0.02
INT0.05
MXN10
MXT1
MXS0.005
MOD3
WAV1.54184
TSZ 45.3500
TDZ 19.3150

C=]
5041460D
[2018-06-02 17:15:18 031] UART Send: [PAF
]
5041460D
[2018-06-02 17:15:18 187] UART Recv: @1[PAF
]
0A5A54412D3030332E333634370D0A0A5A54422D3030312E313037390D0A0A5A54582D3035302E343033350D0A0A5A54592D3035302E383132350D0A0A5A545A2D3030352E303030300D0A0A5354503030302E303230300D0A0A494E543030312E303030300D0A0A535045303034380D0A0A433D
[2018-06-02 17:15:18 467] UART Recv: @1[
ZTA-003.3647

ZTB-001.1079

ZTX-050.4035

ZTY-050.8125

ZTZ-005.0000

STP000.0200

INT001.0000

SPE0048

C=]
534450310D
[2018-06-02 17:15:19 156] UART Send: [SDP1
]
534450310D
[2018-06-02 17:15:19 297] UART Recv: @1[SDP1
]
0A433D
[2018-06-02 17:15:19 441] UART Recv: @1[
C=]

[2018-06-02 17:15:19 442] [DeviceInit] Init Finish

[2018-06-02 17:15:21 282] [Parent] Menu Measure

[2018-06-02 17:15:21 412] [Measure] check 5 Axis=Unchecked

[2018-06-02 17:15:22 176] [Measure] ButtonStart

[2018-06-02 17:15:24 640] [Measure] Measure Start
2F0D
[2018-06-02 17:15:25 683] UART Send: [/
]
0D0A433D
[2018-06-02 17:15:25 761] UART Recv: @2[
C=]
4D4F44330D
[2018-06-02 17:15:26 495] UART Send: [MOD3
]
4D4F44330D0A4D4F44330D0A4D4F44330D0A433D
[2018-06-02 17:15:26 651] UART Recv: @2[MOD3
MOD3
MOD3
C=]
494E54302E30350D
[2018-06-02 17:15:27 323] UART Send: [INT0.05
]
494E54302E30350D0A494E54302E30350D0A494E54302E30350D0A433D
[2018-06-02 17:15:27 455] UART Recv: @2[INT0.05
INT0.05
INT0.05
C=]
535450302E30320D
[2018-06-02 17:15:28 120] UART Send: [STP0.02
]
535450302E30320D0A535450302E30320D0A535450302E30320D0A433D
[2018-06-02 17:15:28 261] UART Recv: @2[STP0.02
STP0.02
STP0.02
C=]
535441300D
[2018-06-02 17:15:28 951] UART Send: [STA0
]
535441300D0A433D202020302E303030300D0A433D
[2018-06-02 17:15:29 092] UART Recv: @2[STA0
C=   0.0000
C=]
53414E3135300D
[2018-06-02 17:15:29 780] UART Send: [SAN150
]
53414E3135300D
[2018-06-02 17:15:29 921] UART Recv: @2[SAN150
]
0A433D
[2018-06-02 17:15:31 187] UART Recv: @2[
C=]
534B4D32352033300D
[2018-06-02 17:15:32 535] UART Send: [SKM25 30
]
534B4D32352033300D
[2018-06-02 17:15:32 614] UART Recv: @2[SKM25 30
]
0A433D
[2018-06-02 17:15:35 852] UART Recv: @2[
C=]
524B4D0D
[2018-06-02 17:15:37 033] UART Send: [RKM
]
524B4D0D32342E39360D200D33302E30320D0A433D
[2018-06-02 17:15:37 111] UART Recv: @2[RKM
24.96

30.02
C=]

[2018-06-02 17:15:37 111] [Measure] totalcount=251
53484F0D
[2018-06-02 17:15:37 927] UART Send: [SHO
]
53484F0D0A433D
[2018-06-02 17:15:38 068] UART Recv: @2[SHO
C=]
535343350D
[2018-06-02 17:15:38 919] UART Send: [SSC5
]

[2018-06-02 17:15:38 934] CountDown start[0,42]
535343350D0A203135302E303030302020202020203133330D0A203135302E303230302020202020203132330D
[2018-06-02 17:15:39 075] UART Recv: @2[SSC5
 150.0000      133
 150.0200      123
]

[2018-06-02 17:15:39 075] [Measure] analyzecount=2recvcount=2
0A203135302E303430302020202020203132320D0A203135302E303630302020202020203135320D
[2018-06-02 17:15:39 247] UART Recv: @2[
 150.0400      122
 150.0600      152
]

[2018-06-02 17:15:39 247] [Measure] analyzecount=2recvcount=4
0A203135302E303830302020202020203132340D0A203135302E313030302020202020203131350D
[2018-06-02 17:15:39 372] UART Recv: @2[
 150.0800      124
 150.1000      115
]

[2018-06-02 17:15:39 372] [Measure] analyzecount=2recvcount=6
0A203135302E313230302020202020203131390D0A203135302E313430302020202020203133330D0A203135302E313630302020202020203132390D
[2018-06-02 17:15:39 526] UART Recv: @2[
 150.1200      119
 150.1400      133
 150.1600      129
]

[2018-06-02 17:15:39 526] [Measure] analyzecount=3recvcount=9
0A203135302E313830302020202020203134300D0A203135302E323030302020202020203133310D0A203135302E323230302020202020203131370D
[2018-06-02 17:15:39 713] UART Recv: @2[
 150.1800      140
 150.2000      131
 150.2200      117
]

[2018-06-02 17:15:39 713] [Measure] analyzecount=3recvcount=12
0A203135302E323430302020202020203133320D0A203135302E323630302020202020203133370D
[2018-06-02 17:15:39 901] UART Recv: @2[
 150.2400      132
 150.2600      137
]

[2018-06-02 17:15:39 901] [Measure] analyzecount=2recvcount=14

[2018-06-02 17:15:39 963] CountDown Run[0,42]
0A203135302E323830302020202020203133310D0A203135302E333030302020202020203136390D
[2018-06-02 17:15:40 026] UART Recv: @2[
 150.2800      131
 150.3000      169
]

[2018-06-02 17:15:40 042] [Measure] analyzecount=2recvcount=16
0A203135302E333230302020202020203133370D0A203135302E333430302020202020203132390D
[2018-06-02 17:15:40 151] UART Recv: @2[
 150.3200      137
 150.3400      129
]

[2018-06-02 17:15:40 151] [Measure] analyzecount=2recvcount=18
0A203135302E333630302020202020203135350D0A203135302E333830302020202020203134380D0A203135302E34303030202020
[2018-06-02 17:15:40 292] UART Recv: @2[
 150.3600      155
 150.3800      148
 150.4000   ]

[2018-06-02 17:15:40 292] [Measure] analyzecount=2recvcount=20
2020203134300D0A203135302E343230302020202020203134380D0A203135302E343430302020202020203135340D
[2018-06-02 17:15:40 432] UART Recv: @2[   140
 150.4200      148
 150.4400      154
]

[2018-06-02 17:15:40 432] [Measure] analyzecount=3recvcount=23
0A203135302E343630302020202020203135330D0A203135302E343830302020202020203132390D
[2018-06-02 17:15:40 603] UART Recv: @2[
 150.4600      153
 150.4800      129
]

[2018-06-02 17:15:40 603] [Measure] analyzecount=2recvcount=25
0A203135302E353030302020202020203134320D0A203135302E353230302020202020203132370D
[2018-06-02 17:15:40 743] UART Recv: @2[
 150.5000      142
 150.5200      127
]

[2018-06-02 17:15:40 743] [Measure] analyzecount=2recvcount=27
0A203135302E353430302020202020203134390D0A203135302E353630302020202020203134320D
[2018-06-02 17:15:40 869] UART Recv: @2[
 150.5400      149
 150.5600      142
]

[2018-06-02 17:15:40 869] [Measure] analyzecount=2recvcount=29

[2018-06-02 17:15:40 931] CountDown Run[1,42]
0A203135302E353830302020202020203134390D0A203135302E363030302020202020203132360D0A203135302E363230302020202020203136360D
[2018-06-02 17:15:41 009] UART Recv: @2[
 150.5800      149
 150.6000      126
 150.6200      166
]

[2018-06-02 17:15:41 009] [Measure] analyzecount=3recvcount=32
0A203135302E363430302020202020203136370D0A203135302E363630302020202020203137330D0A203135302E363830302020202020203135380D
[2018-06-02 17:15:41 197] UART Recv: @2[
 150.6400      167
 150.6600      173
 150.6800      158
]

[2018-06-02 17:15:41 197] [Measure] analyzecount=3recvcount=35
0A203135302E373030302020202020203134390D0A203135302E373230302020202020203135370D
[2018-06-02 17:15:41 384] UART Recv: @2[
 150.7000      149
 150.7200      157
]

[2018-06-02 17:15:41 384] [Measure] analyzecount=2recvcount=37
0A203135302E373430302020202020203135360D0A203135302E373630302020202020203135320D
[2018-06-02 17:15:41 514] UART Recv: @2[
 150.7400      156
 150.7600      152
]

[2018-06-02 17:15:41 514] [Measure] analyzecount=2recvcount=39
0A203135302E373830302020202020203134330D0A203135302E383030302020202020203136350D
[2018-06-02 17:15:41 639] UART Recv: @2[
 150.7800      143
 150.8000      165
]

[2018-06-02 17:15:41 639] [Measure] analyzecount=2recvcount=41
0A203135302E383230302020202020203136310D0A203135302E383430302020202020203135340D
[2018-06-02 17:15:41 764] UART Recv: @2[
 150.8200      161
 150.8400      154
]

[2018-06-02 17:15:41 764] [Measure] analyzecount=2recvcount=43
0A203135302E383630302020202020203135300D0A203135302E383830302020202020203137300D0A203135302E393030302020202020203137390D
[2018-06-02 17:15:41 920] UART Recv: @2[
 150.8600      150
 150.8800      170
 150.9000      179
]

[2018-06-02 17:15:41 920] [Measure] analyzecount=3recvcount=46

[2018-06-02 17:15:41 967] CountDown Run[2,42]
0A203135302E393230302020202020203138360D0A203135302E393430302020202020203138350D0A203135302E393630302020202020203136300D
[2018-06-02 17:15:42 108] UART Recv: @2[
 150.9200      186
 150.9400      185
 150.9600      160
]

[2018-06-02 17:15:42 108] [Measure] analyzecount=3recvcount=49
0A203135302E393830302020202020203135370D0A203135312E303030302020202020203136370D
[2018-06-02 17:15:42 296] UART Recv: @2[
 150.9800      157
 151.0000      167
]

[2018-06-02 17:15:42 296] [Measure] analyzecount=2recvcount=51
0A203135312E303230302020202020203136350D0A203135312E303430302020202020203138340D
[2018-06-02 17:15:42 420] UART Recv: @2[
 151.0200      165
 151.0400      184
]

[2018-06-02 17:15:42 420] [Measure] analyzecount=2recvcount=53
0A203135312E303630302020202020203137320D0A203135312E303830302020202020203138330D
[2018-06-02 17:15:42 546] UART Recv: @2[
 151.0600      172
 151.0800      183
]

[2018-06-02 17:15:42 546] [Measure] analyzecount=2recvcount=55
0A203135312E313030302020202020203138300D0A203135312E313230302020202020203137360D0A203135312E313430302020
[2018-06-02 17:15:42 687] UART Recv: @2[
 151.1000      180
 151.1200      176
 151.1400  ]

[2018-06-02 17:15:42 687] [Measure] analyzecount=2recvcount=57
202020203135370D0A203135312E313630302020202020203135390D0A203135312E313830302020202020203139390D
[2018-06-02 17:15:42 827] UART Recv: @2[    157
 151.1600      159
 151.1800      199
]

[2018-06-02 17:15:42 827] [Measure] analyzecount=3recvcount=60

[2018-06-02 17:15:42 937] CountDown Run[3,42]
0A203135312E323030302020202020203138300D0A203135312E323230302020202020203138360D
[2018-06-02 17:15:42 999] UART Recv: @2[
 151.2000      180
 151.2200      186
]

[2018-06-02 17:15:42 999] [Measure] analyzecount=2recvcount=62
0A203135312E323430302020202020203139360D0A203135312E323630302020202020203230300D
[2018-06-02 17:15:43 140] UART Recv: @2[
 151.2400      196
 151.2600      200
]

[2018-06-02 17:15:43 140] [Measure] analyzecount=2recvcount=64
0A203135312E323830302020202020203138370D0A203135312E333030302020202020203138370D
[2018-06-02 17:15:43 265] UART Recv: @2[
 151.2800      187
 151.3000      187
]

[2018-06-02 17:15:43 265] [Measure] analyzecount=2recvcount=66
0A203135312E333230302020202020203137370D0A203135312E333430302020202020203138330D0A203135312E333630302020202020203138310D
[2018-06-02 17:15:43 405] UART Recv: @2[
 151.3200      177
 151.3400      183
 151.3600      181
]

[2018-06-02 17:15:43 405] [Measure] analyzecount=3recvcount=69
0A203135312E333830302020202020203231370D0A203135312E343030302020202020203138310D
[2018-06-02 17:15:43 583] UART Recv: @2[
 151.3800      217
 151.4000      181
]

[2018-06-02 17:15:43 583] [Measure] analyzecount=2recvcount=71
0A203135312E343230302020202020203230350D0A203135312E343430302020202020203138320D0A203135312E343630302020202020203231310D
[2018-06-02 17:15:43 718] UART Recv: @2[
 151.4200      205
 151.4400      182
 151.4600      211
]

[2018-06-02 17:15:43 718] [Measure] analyzecount=3recvcount=74
0A203135312E343830302020202020203230300D0A203135312E353030302020202020203231310D
[2018-06-02 17:15:43 905] UART Recv: @2[
 151.4800      200
 151.5000      211
]

[2018-06-02 17:15:43 905] [Measure] analyzecount=2recvcount=76

[2018-06-02 17:15:43 953] CountDown Run[4,42]
0A203135312E353230302020202020203230360D0A203135312E353430302020202020203138390D
[2018-06-02 17:15:44 031] UART Recv: @2[
 151.5200      206
 151.5400      189
]

[2018-06-02 17:15:44 031] [Measure] analyzecount=2recvcount=78
0A203135312E353630302020202020203234360D0A203135312E353830302020202020203232380D
[2018-06-02 17:15:44 172] UART Recv: @2[
 151.5600      246
 151.5800      228
]

[2018-06-02 17:15:44 172] [Measure] analyzecount=2recvcount=80
0A203135312E363030302020202020203230360D0A203135312E363230302020202020203138310D0A203135312E363430302020202020203230380D
[2018-06-02 17:15:44 312] UART Recv: @2[
 151.6000      206
 151.6200      181
 151.6400      208
]

[2018-06-02 17:15:44 312] [Measure] analyzecount=3recvcount=83
0A203135312E363630302020202020203233330D0A203135312E363830302020202020203232380D
[2018-06-02 17:15:44 493] UART Recv: @2[
 151.6600      233
 151.6800      228
]

[2018-06-02 17:15:44 493] [Measure] analyzecount=2recvcount=85
0A203135312E373030302020202020203232340D0A203135312E373230302020202020203232370D
[2018-06-02 17:15:44 624] UART Recv: @2[
 151.7000      224
 151.7200      227
]

[...]
[2018-06-02 21:59:21 543] UART Recv: @1[PAR
LWL30
UPL75
SPE0.02
STP0.02
INT0.05
MXN10
MXT1
MXS0.005
MOD3
WAV1.54184
TSZ 45.3500
TDZ 19.3150

C=]
5041460D
[2018-06-02 21:59:21 543] UART Send: [PAF
]

[2018-06-02 21:59:21 581] [DeviceInit] warmup check=False

[2018-06-02 21:59:21 581] [DeviceInit] warmup skip, GetDeviceZeroPoint
5041520D
[2018-06-02 21:59:21 581] UART Send: [PAR
]
5041460D
[2018-06-02 21:59:21 671] UART Recv: @1[PAF
]

[2018-06-02 21:59:21 749] [DeviceInit] warmup check=False

[2018-06-02 21:59:21 749] [DeviceInit] warmup skip, GetDeviceZeroPoint
5041520D
[2018-06-02 21:59:21 749] UART Send: [PAR
]
0A5A54412D3030332E333634370D0A0A5A54422D3030312E313037390D0A0A5A54582D3035302E343033350D0A0A5A54592D3035302E383132350D0A0A5A545A2D3030352E303030300D0A0A5354503030302E303230300D0A0A494E543030312E303030300D0A0A535045303034380D0A0A433D5041520D0A4C574C33300D0A55504C37350D0A535045302E30320D0A535450302E30320D0A494E54302E30350D0A4D584E31300D0A4D5854310D0A4D5853302E3030350D0A4D4F44330D0A574156312E35343138340D0A54535A2034352E333530300D0A54445A2031392E333135300D0A0A433D5041520D0A4C574C33300D0A55504C37350D0A535045302E30320D0A535450302E30320D0A494E54302E30350D0A4D584E31300D0A4D5854310D0A4D5853302E3030350D0A4D4F44330D0A574156312E35343138340D0A54535A2034352E333530300D0A54445A2031392E333135300D0A0A433D
[2018-06-02 21:59:21 959] UART Recv: @1[
ZTA-003.3647

ZTB-001.1079

ZTX-050.4035

ZTY-050.8125

ZTZ-005.0000

STP000.0200

INT001.0000

SPE0048

C=PAR
LWL30
UPL75
SPE0.02
STP0.02
INT0.05
MXN10
MXT1
MXS0.005
MOD3
WAV1.54184
TSZ 45.3500
TDZ 19.3150

C=PAR
LWL30
UPL75
SPE0.02
STP0.02
INT0.05
MXN10
MXT1
MXS0.005
MOD3
WAV1.54184
TSZ 45.3500
TDZ 19.3150

C=]

[2018-06-02 21:59:21 967] Exception
ZTA-003.3647

ZTB-001.1079

ZTX-050.4035

ZTY-050.8125

ZTZ-005.0000

STP000.0200

INT001.0000

SPE0048

C=PAR
LWL30
UPL75
SPE0.02
STP0.02
INT0.05
MXN10
MXT1
MXS0.005
MOD3
WAV1.54184
TSZ 45.3500
TDZ 19.3150

C=PAR
LWL30
UPL75
SPE0.02
STP0.02
INT0.05
MXN10
MXT1
MXS0.005
MOD3
WAV1.54184
TSZ 45.3500
TDZ 19.3150

C=[System.FormatException: Input string was not in a correct format.
   at System.Number.ParseDouble(String value, NumberStyles options, NumberFormatInfo numfmt)
   at System.Convert.ToDouble(String value)
   at DllLibrary.SDDDetector.RecvDeviceZeroPoint(Byte[] data, Double[]& zeropoint) in d:\PCTool\XRD_Tool\DllLibrary\SDDDetector.cs:line 154
   at XRD_Tool.MeasureApi.RecvGetDeviceZeroPoint(Byte[] data) in d:\PCTool\XRD_Tool\XRD_Tool\MeasureApi.cs:line 243]

[2018-06-02 21:59:24 341] [DeviceInit] warmup check=False

[2018-06-02 21:59:24 341] [DeviceInit] warmup skip, GetDeviceZeroPoint
5041520D
[2018-06-02 21:59:24 341] UART Send: [PAR
]
5041520D0A4C574C33300D0A55504C37350D0A535045302E30320D0A535450302E30320D0A494E54302E30350D0A4D584E31300D0A4D5854310D0A4D5853302E3030350D0A4D4F44330D0A574156312E35343138340D0A54535A2034352E333530300D0A54445A2031392E333135300D0A0A433D
[2018-06-02 21:59:24 464] UART Recv: @1[PAR
LWL30
UPL75
SPE0.02
STP0.02
INT0.05
MXN10
MXT1
MXS0.005
MOD3
WAV1.54184
TSZ 45.3500
TDZ 19.3150

C=]
5041460D
[2018-06-02 21:59:24 464] UART Send: [PAF
]

[2018-06-02 21:59:24 511] [DeviceInit] warmup check=False

[2018-06-02 21:59:24 511] [DeviceInit] warmup skip, GetDeviceZeroPoint
5041520D
[2018-06-02 21:59:24 511] UART Send: [PAR
]
5041460D
[2018-06-02 21:59:24 590] UART Recv: @1[PAF
]

[2018-06-02 21:59:24 669] [DeviceInit] warmup check=False

[2018-06-02 21:59:24 669] [DeviceInit] warmup skip, GetDeviceZeroPoint
5041520D
[2018-06-02 21:59:24 669] UART Send: [PAR
]
0A5A54412D3030332E333634370D0A0A5A54422D3030312E313037390D0A0A5A54582D3035302E343033350D0A0A5A54592D3035302E383132350D0A0A5A545A2D3030352E303030300D0A0A5354503030302E303230300D0A0A494E543030312E303030300D0A0A535045303034380D0A0A433D5041520D0A4C574C33300D0A55504C37350D0A535045302E30320D0A535450302E30320D0A494E54302E30350D0A4D584E31300D0A4D5854310D0A4D5853302E3030350D0A4D4F44330D0A574156312E35343138340D0A54535A2034352E333530300D0A54445A2031392E333135300D0A0A433D5041520D0A4C574C33300D0A55504C37350D0A535045302E30320D0A535450302E30320D0A494E54302E30350D0A4D584E31300D0A4D5854310D0A4D5853302E3030350D0A4D4F44330D0A574156312E35343138340D0A54535A2034352E333530300D0A54445A2031392E333135300D0A0A433D
[2018-06-02 21:59:24 878] UART Recv: @1[
ZTA-003.3647

ZTB-001.1079

ZTX-050.4035

ZTY-050.8125

ZTZ-005.0000

STP000.0200

INT001.0000

SPE0048

C=PAR
LWL30
UPL75
SPE0.02
STP0.02
INT0.05
MXN10
MXT1
MXS0.005
MOD3
WAV1.54184
TSZ 45.3500
TDZ 19.3150

C=PAR
LWL30
UPL75
SPE0.02
STP0.02
INT0.05
MXN10
MXT1
MXS0.005
MOD3
WAV1.54184
TSZ 45.3500
TDZ 19.3150

C=]

[2018-06-02 21:59:24 908] Exception
ZTA-003.3647

ZTB-001.1079

ZTX-050.4035

ZTY-050.8125

ZTZ-005.0000

STP000.0200

INT001.0000

SPE0048

C=PAR
LWL30
UPL75
SPE0.02
STP0.02
INT0.05
MXN10
MXT1
MXS0.005
MOD3
WAV1.54184
TSZ 45.3500
TDZ 19.3150

C=PAR
LWL30
UPL75
SPE0.02
STP0.02
INT0.05
MXN10
MXT1
MXS0.005
MOD3
WAV1.54184
TSZ 45.3500
TDZ 19.3150

C=[System.FormatException: Input string was not in a correct format.
   at System.Number.ParseDouble(String value, NumberStyles options, NumberFormatInfo numfmt)
   at System.Convert.ToDouble(String value)
   at DllLibrary.SDDDetector.RecvDeviceZeroPoint(Byte[] data, Double[]& zeropoint) in d:\PCTool\XRD_Tool\DllLibrary\SDDDetector.cs:line 154
   at XRD_Tool.MeasureApi.RecvGetDeviceZeroPoint(Byte[] data) in d:\PCTool\XRD_Tool\XRD_Tool\MeasureApi.cs:line 243]

[2018-06-02 21:59:28 463] [DeviceInit] Init Skip

[2018-06-02 21:59:29 791] [Parent] Menu Measure

[2018-06-02 21:59:29 853] [Measure] check 5 Axis=Unchecked
[2018-06-02 22:19:27 816]Log Start******************************************************

[2018-06-02 22:19:29 137] [UserLogin] login succeed!user=administrator,pwd=123456

[2018-06-02 22:19:29 271] [DeviceInit] Init Start
2F0D
[2018-06-02 22:19:29 276] UART Send: [/
]
0D0A433D
[2018-06-02 22:19:29 405] UART Recv: @1[
C=]
5246460D
[2018-06-02 22:19:29 408] UART Send: [RFF
]
5246460D0A2B2B3130310D0A433D
[2018-06-02 22:19:29 542] UART Recv: @1[RFF
++101
C=]
524B4D0D
[2018-06-02 22:19:29 544] UART Send: [RKM
]
524B4D0D32342E39360D200D33302E30320D0A433D
[2018-06-02 22:19:29 670] UART Recv: @1[RKM
24.96

30.02
C=]

[2018-06-02 22:19:30 700] [DeviceInit] warmup check=False

[2018-06-02 22:19:30 700] [DeviceInit] warmup skip, GetDeviceZeroPoint
5041520D
[2018-06-02 22:19:30 702] UART Send: [PAR
]
5041520D0A4C574C33300D0A55504C37350D0A535045302E30320D0A535450302E30320D0A494E54302E30350D0A4D584E31300D0A4D5854310D0A4D5853302E3030350D0A4D4F44330D0A574156312E35343138340D0A54535A2034352E333530300D0A54445A2031392E333135300D0A0A433D
[2018-06-02 22:19:30 836] UART Recv: @1[PAR
LWL30
UPL75
SPE0.02
STP0.02
INT0.05
MXN10
MXT1
MXS0.005
MOD3
WAV1.54184
TSZ 45.3500
TDZ 19.3150

C=]
5041460D
[2018-06-02 22:19:30 839] UART Send: [PAF
]
5041460D
[2018-06-02 22:19:30 963] UART Recv: @1[PAF
]
0A5A54412D3030332E333634370D0A0A5A54422D3030312E313037390D0A0A5A54582D3035302E343033350D0A0A5A54592D3035302E383132350D0A0A5A545A2D3030352E303030300D0A0A5354503030302E303230300D0A0A494E543030312E303030300D0A0A535045303034380D0A0A433D
[2018-06-02 22:19:31 250] UART Recv: @1[
ZTA-003.3647

ZTB-001.1079

ZTX-050.4035

ZTY-050.8125

ZTZ-005.0000

STP000.0200

INT001.0000

SPE0048

C=]
534450320D
[2018-06-02 22:19:31 253] UART Send: [SDP2
]
534450320D
[2018-06-02 22:19:31 377] UART Recv: @1[SDP2
]
0A433D
[2018-06-02 22:19:31 521] UART Recv: @1[
C=]
2D7265736574
[2018-06-02 22:19:31 542] TCP Send: [-reset]

[2018-06-02 22:19:31 583] Exception[System.ArgumentNullException: Value cannot be null.
Parameter name: value
   at System.BitConverter.ToInt32(Byte[] value, Int32 startIndex)
   at XRD_Tool.MeasureApi.RecvTCPCmdResultCheck(Byte[] cmd, Int32& code) in d:\PCTool\XRD_Tool\XRD_Tool\MeasureApi.cs:line 1130]
00000000
[2018-06-02 22:19:33 975] TCP Recv: []
2D73657474696E6773204372
[2018-06-02 22:19:33 976] TCP Send: [-settings Cr]
00000000
[2018-06-02 22:19:34 235] TCP Recv: []

[2018-06-02 22:19:34 236] [DeviceInit] Init Finish

[2018-06-02 22:20:23 303] [Parent] Menu Measure

[2018-06-02 22:20:23 418] [Measure] check 5 Axis=Unchecked

[2018-06-02 22:20:34 270] [Measure] Measure Methord changed3

[2018-06-02 22:20:34 270] [Measure] check 5 Axis=Unchecked

[2018-06-02 22:20:35 977] [Measure] Measure Methord changed2

[2018-06-02 22:20:35 977] [Measure] check 5 Axis=Unchecked

[2018-06-02 22:20:43 508] [Parent] closing
[2018-06-02 22:20:43 510]Log End******************************************************