File: XRD_Tool/XRD_Tool/bin/Debug/20180527-log.txt
[2018-05-27 11:57:09 438] UART Send: [
]

0D
[2018-05-27 11:57:09 563] UART Recv: @1[
C=]

0D0A433D
[2018-05-27 11:57:09 563] UART Send: [RFF
]

5246460D
[2018-05-27 11:57:09 703] UART Recv: @1[RFF
++101
C=]

5246460D0A2B2B3130310D0A433D
[2018-05-27 11:57:09 703] UART Send: [RKM
]

524B4D0D
[2018-05-27 11:57:09 843] UART Recv: @1[RKM
09.93

04.79
C=]

524B4D0D30392E39330D200D30342E37390D0A433D
[2018-05-27 11:57:28 127] UART Send: [/
]

2F0D
[2018-05-27 11:57:28 267] UART Recv: @3[
C=]

0D0A433D
[2018-05-27 11:57:28 267] UART Send: [MOD3
]

4D4F44330D
[2018-05-27 11:57:28 392] UART Recv: @3[MOD3
MOD3
MOD3
C=]

4D4F44330D0A4D4F44330D0A4D4F44330D0A433D
[2018-05-27 11:57:28 392] UART Send: [INT0.05
]

494E54302E30350D
[2018-05-27 11:57:28 532] UART Recv: @3[INT0.05
INT0.05
INT0.05
C=]

494E54302E30350D0A494E54302E30350D0A494E54302E30350D0A433D
[2018-05-27 11:57:28 532] UART Send: [STP0.02
]

535450302E30320D
[2018-05-27 11:57:28 673] UART Recv: @3[STP0.02
STP0.02
STP0.02
C=]

535450302E30320D0A535450302E30320D0A535450302E30320D0A433D
[2018-05-27 11:57:28 673] UART Send: [STA0
]

535441300D
[2018-05-27 11:57:28 797] UART Recv: @3[STA0
]

535441300D
[2018-05-27 11:57:38 376] UART Recv: @3[
C=   0.0000
C=]

0A433D202020302E303030300D0A433D
[2018-05-27 11:57:38 376] UART Send: [SAN147.5
]

53414E3134372E350D
[2018-05-27 11:57:38 501] UART Recv: @3[SAN147.5
]

53414E3134372E350D
[2018-05-27 11:57:39 764] UART Recv: @3[
C=]

0A433D
[2018-05-27 11:57:39 764] UART Send: [SKM25 30
]

534B4D32352033300D
[2018-05-27 11:57:39 889] UART Recv: @3[SKM25 30
]

534B4D32352033300D
[2018-05-27 11:57:44 616] UART Recv: @3[
C=]

0A433D
[2018-05-27 11:57:44 616] UART Send: [RKM
]

524B4D0D
[2018-05-27 11:57:44 756] UART Recv: @3[RKM
24.96

28.40
C=]

524B4D0D32342E39360D200D32382E34300D0A433D
[2018-05-27 11:57:44 756] UART Send: [SHO
]

53484F0D
[2018-05-27 11:57:44 897] UART Recv: @3[SHO
C=]

53484F0D0A433D
[2018-05-27 11:57:44 897] UART Send: [SSC5
]

535343350D
[2018-05-27 11:57:45 053] UART Recv: @3[SSC5
 147.5000       52
 147.5200       56
]

535343350D0A203134372E353030302020202020202035320D0A203134372E353230302020202020202035360D
[2018-05-27 11:57:45 053] CountDown start[0,42]

[2018-05-27 11:57:45 209] UART Recv: @3[
 147.5400       44
 147.5600       38
]

0A203134372E353430302020202020202034340D0A203134372E353630302020202020202033380D
[2018-05-27 11:57:45 209] CountDown start[0,42]

[2018-05-27 11:57:45 349] UART Recv: @3[
 147.5800       69
 147.6000       60
]

0A203134372E353830302020202020202036390D0A203134372E363030302020202020202036300D
[2018-05-27 11:57:45 349] CountDown start[0,42]

[2018-05-27 11:57:45 474] UART Recv: @3[
 147.6200       45
 147.6400       44
]

0A203134372E363230302020202020202034350D0A203134372E363430302020202020202034340D
[2018-05-27 11:57:45 474] CountDown start[0,42]

[2018-05-27 11:57:45 599] UART Recv: @3[
 147.6600       40
 147.6800       50
]

0A203134372E363630302020202020202034300D0A203134372E363830302020202020202035300D
[2018-05-27 11:57:45 599] CountDown start[0,42]

[2018-05-27 11:57:45 723] UART Recv: @3[
 147.7000       64
 147.7200       53
]

0A203134372E373030302020202020202036340D0A203134372E373230302020202020202035330D
[2018-05-27 11:57:45 723] CountDown start[0,42]

[2018-05-27 11:57:45 848] UART Recv: @3[
 147.7400       50
 147.7600       59
]

0A203134372E373430302020202020202035300D0A203134372E373630302020202020202035390D
[2018-05-27 11:57:45 848] CountDown start[0,42]

[2018-05-27 11:57:45 989] UART Recv: @3[
 147.7800       52
 147.8000       62
]

0A203134372E373830302020202020202035320D0A203134372E383030302020202020202036320D
[2018-05-27 11:57:45 989] CountDown start[0,42]

[2018-05-27 11:57:46 067] CountDown[0,42]

[2018-05-27 11:57:46 129] UART Recv: @3[
 147.8200       55
 147.8400       41
]

0A203134372E383230302020202020202035350D0A203134372E383430302020202020202034310D
[2018-05-27 11:57:46 129] CountDown start[0,42]

[2018-05-27 11:57:46 254] UART Recv: @3[
 147.8600       45
 147.8800       48
]

0A203134372E383630302020202020202034350D0A203134372E383830302020202020202034380D
[2018-05-27 11:57:46 254] CountDown start[0,42]

[2018-05-27 11:57:46 379] UART Recv: @3[
 147.9000       44
 147.9200       45
]

0A203134372E393030302020202020202034340D0A203134372E393230302020202020202034350D
[2018-05-27 11:57:46 379] CountDown start[0,42]

[2018-05-27 11:57:46 503] UART Recv: @3[
 147.9400       51
 147.9600       54
]

0A203134372E393430302020202020202035310D0A203134372E393630302020202020202035340D
[2018-05-27 11:57:46 503] CountDown start[0,42]

[2018-05-27 11:57:46 644] UART Recv: @3[
 147.9800       46
 148.0000       56
]

0A203134372E393830302020202020202034360D0A203134382E303030302020202020202035360D
[2018-05-27 11:57:46 644] CountDown start[0,42]

[2018-05-27 11:57:46 769] UART Recv: @3[
 148.0200       51
 148.0400       60
]

0A203134382E303230302020202020202035310D0A203134382E303430302020202020202036300D
[2018-05-27 11:57:46 769] CountDown start[0,42]

[2018-05-27 11:57:46 893] UART Recv: @3[
 148.0600       50
 148.0800       52
]

0A203134382E303630302020202020202035300D0A203134382E303830302020202020202035320D
[2018-05-27 11:57:46 893] CountDown start[0,42]

[2018-05-27 11:57:47 018] UART Recv: @3[
 148.1000       47
 148.1200       50
]

0A203134382E313030302020202020202034370D0A203134382E313230302020202020202035300D
[2018-05-27 11:57:47 018] CountDown start[0,42]

[2018-05-27 11:57:47 081] CountDown[0,42]

[2018-05-27 11:57:47 143] UART Recv: @3[
 148.1400       48
 148.1600       54
]

0A203134382E313430302020202020202034380D0A203134382E313630302020202020202035340D
[2018-05-27 11:57:47 143] CountDown start[0,42]

[2018-05-27 11:57:47 299] UART Recv: @3[
 148.1800       61
 148.2000       45
]

0A203134382E313830302020202020202036310D0A203134382E323030302020202020202034350D
[2018-05-27 11:57:47 299] CountDown start[0,42]

[2018-05-27 11:57:47 424] UART Recv: @3[
 148.2200       56
 148.2400       43
]

0A203134382E323230302020202020202035360D0A203134382E323430302020202020202034330D
[2018-05-27 11:57:47 424] CountDown start[0,42]

[2018-05-27 11:57:47 549] UART Recv: @3[
 148.2600       51
 148.2800       62
]

0A203134382E323630302020202020202035310D0A203134382E323830302020202020202036320D
[2018-05-27 11:57:47 549] CountDown start[0,42]

[2018-05-27 11:57:47 673] UART Recv: @3[
 148.3000       58
 148.3200       44
]

0A203134382E333030302020202020202035380D0A203134382E333230302020202020202034340D
[2018-05-27 11:57:47 673] CountDown start[0,42]

[2018-05-27 11:57:47 798] UART Recv: @3[
 148.3400       48
 148.3600       72
]

0A203134382E333430302020202020202034380D0A203134382E333630302020202020202037320D
[2018-05-27 11:57:47 798] CountDown start[0,42]

[2018-05-27 11:57:47 939] UART Recv: @3[
 148.3800       52
 148.4000       59
]

0A203134382E333830302020202020202035320D0A203134382E343030302020202020202035390D
[2018-05-27 11:57:47 939] CountDown start[0,42]

[2018-05-27 11:57:48 063] UART Recv: @3[
 148.4200       58
 148.4400       53
]

0A203134382E343230302020202020202035380D0A203134382E343430302020202020202035330D
[2018-05-27 11:57:48 063] CountDown start[0,42]

[2018-05-27 11:57:48 095] CountDown[0,42]

[2018-05-27 11:57:48 188] UART Recv: @3[
 148.4600       55
 148.4800       67
]

0A203134382E343630302020202020202035350D0A203134382E343830302020202020202036370D
[2018-05-27 11:57:48 188] CountDown start[0,42]

[2018-05-27 11:57:48 313] UART Recv: @3[
 148.5000       71
 148.5200       48
]

0A203134382E353030302020202020202037310D0A203134382E353230302020202020202034380D
[2018-05-27 11:57:48 313] CountDown start[0,42]

[2018-05-27 11:57:48 453] UART Recv: @3[
 148.5400       51
 148.5600       44
]

0A203134382E353430302020202020202035310D0A203134382E353630302020202020202034340D
[2018-05-27 11:57:48 453] CountDown start[0,42]

[2018-05-27 11:57:48 594] UART Recv: @3[
 148.5800       54
 148.6000       47
]

0A203134382E353830302020202020202035340D0A203134382E363030302020202020202034370D
[2018-05-27 11:57:48 594] CountDown start[0,42]

[2018-05-27 11:57:48 719] UART Recv: @3[
 148.6200       70
 148.6400       56
]

0A203134382E363230302020202020202037300D0A203134382E363430302020202020202035360D
[2018-05-27 11:57:48 719] CountDown start[0,42]

[2018-05-27 11:57:48 843] UART Recv: @3[
 148.6600       58
 148.6800       52
]

0A203134382E363630302020202020202035380D0A203134382E363830302020202020202035320D
[2018-05-27 11:57:48 843] CountDown start[0,42]

[2018-05-27 11:57:48 968] UART Recv: @3[
 148.7000       63
 148.7200       64
]

0A203134382E373030302020202020202036330D0A203134382E373230302020202020202036340D
[2018-05-27 11:57:48 968] CountDown start[0,42]

[2018-05-27 11:57:49 093] UART Recv: @3[
 148.7400       43
 148.7600       54
]

0A203134382E373430302020202020202034330D0A203134382E373630302020202020202035340D
[2018-05-27 11:57:49 093] CountDown start[0,42]

[2018-05-27 11:57:49 109] CountDown[0,42]

[2018-05-27 11:57:49 233] UART Recv: @3[
 148.7800       52
 148.8000       68
]

0A203134382E373830302020202020202035320D0A203134382E383030302020202020202036380D
[2018-05-27 11:57:49 233] CountDown start[0,42]

[2018-05-27 11:57:49 358] UART Recv: @3[
 148.8200       36
 148.8400       58
]

0A203134382E383230302020202020202033360D0A203134382E383430302020202020202035380D
[2018-05-27 11:57:49 358] CountDown start[0,42]

[2018-05-27 11:57:49 483] UART Recv: @3[
 148.8600       54
 148.8800       58
]

0A203134382E383630302020202020202035340D0A203134382E383830302020202020202035380D
[2018-05-27 11:57:49 483] CountDown start[0,42]

[2018-05-27 11:57:49 608] UART Recv: @3[
 148.9000       49
 148.9200       60
]

0A203134382E393030302020202020202034390D0A203134382E393230302020202020202036300D
[2018-05-27 11:57:49 608] CountDown start[0,42]

[2018-05-27 11:57:49 748] UART Recv: @3[
 148.9400       55
 148.9600       53
]

0A203134382E393430302020202020202035350D0A203134382E393630302020202020202035330D
[2018-05-27 11:57:49 748] CountDown start[0,42]

[2018-05-27 11:57:49 889] UART Recv: @3[
 148.9800       51
 149.0000       44
]

0A203134382E393830302020202020202035310D0A203134392E303030302020202020202034340D
[2018-05-27 11:57:49 889] CountDown start[0,42]

[2018-05-27 11:57:50 013] UART Recv: @3[
 149.0200       52
 149.0400       55
]

0A203134392E303230302020202020202035320D0A203134392E303430302020202020202035350D
[2018-05-27 11:57:50 013] CountDown start[0,42]

[2018-05-27 11:57:50 123] CountDown[0,42]

[2018-05-27 11:57:50 138] UART Recv: @3[
 149.0600       64
 149.0800       60
]

0A203134392E303630302020202020202036340D0A203134392E303830302020202020202036300D
[2018-05-27 11:57:50 138] CountDown start[0,42]

[2018-05-27 11:57:50 263] UART Recv: @3[
 149.1000       67
 149.1200       61
]

0A203134392E313030302020202020202036370D0A203134392E313230302020202020202036310D
[2018-05-27 11:57:50 263] CountDown start[0,42]

[2018-05-27 11:57:50 388] UART Recv: @3[
 149.1400       48
 149.1600       46
]

0A203134392E313430302020202020202034380D0A203134392E313630302020202020202034360D
[2018-05-27 11:57:50 388] CountDown start[0,42]

[2018-05-27 11:57:50 528] UART Recv: @3[
 149.1800       65
 149.2000       66
]

0A203134392E313830302020202020202036350D0A203134392E323030302020202020202036360D
[2018-05-27 11:57:50 528] CountDown start[0,42]

[2018-05-27 11:57:50 653] UART Recv: @3[
 149.2200       51
 149.2400       80
]

0A203134392E323230302020202020202035310D0A203134392E323430302020202020202038300D
[2018-05-27 11:57:50 653] CountDown start[0,42]

[2018-05-27 11:57:50 778] UART Recv: @3[
 149.2600       59
 149.2800       62
]

0A203134392E323630302020202020202035390D0A203134392E323830302020202020202036320D
[2018-05-27 11:57:50 778] CountDown start[0,42]

[2018-05-27 11:57:50 918] UART Recv: @3[
 149.3000       52
 149.3200       57
]

0A203134392E333030302020202020202035320D0A203134392E333230302020202020202035370D
[2018-05-27 11:57:50 918] CountDown start[0,42]

[2018-05-27 11:57:51 043] UART Recv: @3[
 149.3400       48
 149.3600       41
]

0A203134392E333430302020202020202034380D0A203134392E333630302020202020202034310D
[2018-05-27 11:57:51 043] CountDown start[0,42]

[2018-05-27 11:57:51 137] CountDown[0,42]

[2018-05-27 11:57:51 183] UART Recv: @3[
 149.3800       55
 149.4000       65
]

0A203134392E333830302020202020202035350D0A203134392E343030302020202020202036350D
[2018-05-27 11:57:51 183] CountDown start[0,42]

[2018-05-27 11:57:51 308] UART Recv: @3[
 149.4200       62
 149.4400       77
]

0A203134392E343230302020202020202036320D0A203134392E343430302020202020202037370D
[2018-05-27 11:57:51 308] CountDown start[0,42]

[2018-05-27 11:57:51 433] UART Recv: @3[
 149.4600       59
 149.4800       60
]

0A203134392E343630302020202020202035390D0A203134392E343830302020202020202036300D
[2018-05-27 11:57:51 433] CountDown start[0,42]

[2018-05-27 11:57:51 558] UART Recv: @3[
 149.5000       49
 149.5200       51
]

0A203134392E353030302020202020202034390D0A203134392E353230302020202020202035310D
[2018-05-27 11:57:51 558] CountDown start[0,42]

[2018-05-27 11:57:51 683] UART Recv: @3[
 149.5400       60
 149.5600       54
]

0A203134392E353430302020202020202036300D0A203134392E353630302020202020202035340D
[2018-05-27 11:57:51 683] CountDown start[0,42]

[2018-05-27 11:57:51 823] UART Recv: @3[
 149.5800       52
 149.6000       59
]

0A203134392E353830302020202020202035320D0A203134392E363030302020202020202035390D
[2018-05-27 11:57:51 823] CountDown start[0,42]

[2018-05-27 11:57:51 948] UART Recv: @3[
 149.6200       58
 149.6400       62
]

0A203134392E363230302020202020202035380D0A203134392E363430302020202020202036320D
[2018-05-27 11:57:51 948] CountDown start[0,42]

[2018-05-27 11:57:52 073] UART Recv: @3[
 149.6600       61
 149.6800       62
]

0A203134392E363630302020202020202036310D0A203134392E363830302020202020202036320D
[2018-05-27 11:57:52 073] CountDown start[0,42]

[2018-05-27 11:57:52 151] CountDown[0,42]

[2018-05-27 11:57:52 213] UART Recv: @3[
 149.7000       58
 149.7200       63
]

0A203134392E373030302020202020202035380D0A203134392E373230302020202020202036330D
[2018-05-27 11:57:52 213] CountDown start[0,42]

[2018-05-27 11:57:52 338] UART Recv: @3[
 149.7400       70
 149.7600       60
]

0A203134392E373430302020202020202037300D0A203134392E373630302020202020202036300D
[2018-05-27 11:57:52 338] CountDown start[0,42]

[2018-05-27 11:57:52 478] UART Recv: @3[
 149.7800       68
 149.8000       61
]

0A203134392E373830302020202020202036380D0A203134392E383030302020202020202036310D
[2018-05-27 11:57:52 478] CountDown start[0,42]

[2018-05-27 11:57:52 603] UART Recv: @3[
 149.8200       65
 149.8400       69
]

0A203134392E383230302020202020202036350D0A203134392E383430302020202020202036390D
[2018-05-27 11:57:52 603] CountDown start[0,42]

[2018-05-27 11:57:52 728] UART Recv: @3[
 149.8600       74
 149.8800       60
]

0A203134392E383630302020202020202037340D0A203134392E383830302020202020202036300D
[2018-05-27 11:57:52 728] CountDown start[0,42]

[2018-05-27 11:57:52 853] UART Recv: @3[
 149.9000       73
 149.9200       62
]

0A203134392E393030302020202020202037330D0A203134392E393230302020202020202036320D
[2018-05-27 11:57:52 853] CountDown start[0,42]

[2018-05-27 11:57:52 977] UART Recv: @3[
 149.9400       53
 149.9600       60
]

0A203134392E393430302020202020202035330D0A203134392E393630302020202020202036300D
[2018-05-27 11:57:52 977] CountDown start[0,42]

[2018-05-27 11:57:53 118] UART Recv: @3[
 149.9800       62
 150.0000       63
]

0A203134392E393830302020202020202036320D0A203135302E303030302020202020202036330D
[2018-05-27 11:57:53 118] CountDown start[0,42]

[2018-05-27 11:57:53 165] CountDown[0,42]

[2018-05-27 11:57:53 243] UART Recv: @3[
 150.0200       69
 150.0400       75
]

0A203135302E303230302020202020202036390D0A203135302E303430302020202020202037350D
[2018-05-27 11:57:53 243] CountDown start[0,42]

[2018-05-27 11:57:53 383] UART Recv: @3[
 150.0600       60
 150.0800       64
]

0A203135302E303630302020202020202036300D0A203135302E303830302020202020202036340D
[2018-05-27 11:57:53 383] CountDown start[0,42]

[2018-05-27 11:57:53 508] UART Recv: @3[
 150.1000       72
 150.1200       73
]

0A203135302E313030302020202020202037320D0A203135302E313230302020202020202037330D
[2018-05-27 11:57:53 508] CountDown start[0,42]

[2018-05-27 11:57:53 633] UART Recv: @3[
 150.1400       57
 150.1600       64
]

0A203135302E313430302020202020202035370D0A203135302E313630302020202020202036340D
[2018-05-27 11:57:53 633] CountDown start[0,42]

[2018-05-27 11:57:53 773] UART Recv: @3[
 150.1800       57
 150.2000       73
]

0A203135302E313830302020202020202035370D0A203135302E323030302020202020202037330D
[2018-05-27 11:57:53 773] CountDown start[0,42]

[2018-05-27 11:57:53 898] UART Recv: @3[
 150.2200       71
 150.2400       60
]

0A203135302E323230302020202020202037310D0A203135302E323430302020202020202036300D
[2018-05-27 11:57:53 898] CountDown start[0,42]

[2018-05-27 11:57:54 023] UART Recv: @3[
 150.2600       64
 150.2800       59
]

0A203135302E323630302020202020202036340D0A203135302E323830302020202020202035390D
[2018-05-27 11:57:54 023] CountDown start[0,42]

[2018-05-27 11:57:54 147] UART Recv: @3[
 150.3000       70
 150.3200       58
]

[...]
   at System.DateTimeParse.Parse(String s, DateTimeFormatInfo dtfi, DateTimeStyles styles)
   at System.Convert.ToDateTime(String value)
   at XRD_Tool.FormDeviceInit.WarmUpCheck() in d:\PCTool\XRD_Tool_20180527_2100\XRD_Tool\XRD_Tool\FormDeviceInit.cs:line 494]

[2018-05-27 23:10:25 809] UART Send: [PAR
]

5041520D
[2018-05-27 23:10:25 931] UART Recv: @1[PAR
LWL30
UPL75
SPE0.02
STP0.02
INT0.05
MXN10
MXT1
MXS0.005
MOD3
WAV1.48564
TSZ 45.3500
TDZ 19.3150

C=]

5041520D0A4C574C33300D0A55504C37350D0A535045302E30320D0A535450302E30320D0A494E54302E30350D0A4D584E31300D0A4D5854310D0A4D5853302E3030350D0A4D4F44330D0A574156312E34383536340D0A54535A2034352E333530300D0A54445A2031392E333135300D0A0A433D
[2018-05-27 23:10:25 934] UART Send: [PAF
]

5041460D
[2018-05-27 23:10:26 058] UART Recv: @1[PAF
]

5041460D
[2018-05-27 23:10:26 346] UART Recv: @1[
ZTA-003.3647

ZTB-001.1079

ZTX-035.0000

ZTY-050.3295

ZTZ-005.0000

STP000.0200

INT001.0000

SPE0048

C=]

0A5A54412D3030332E333634370D0A0A5A54422D3030312E313037390D0A0A5A54582D3033352E303030300D0A0A5A54592D3035302E333239350D0A0A5A545A2D3030352E303030300D0A0A5354503030302E303230300D0A0A494E543030312E303030300D0A0A535045303034380D0A0A433D
[2018-05-27 23:10:26 349] UART Send: [SDP2
]

534450320D
[2018-05-27 23:10:26 473] UART Recv: @1[SDP2
]

534450320D
[2018-05-27 23:10:26 616] UART Recv: @1[
C=]

0A433D
[2018-05-27 23:10:27 187] TCP Send: [-reset]

2D7265736574
[2018-05-27 23:10:29 797] TCP Send: [-settings Cr]

2D73657474696E6773204372
[2018-05-27 23:28:02 963] UART Send: [
]

0D
[2018-05-27 23:28:03 102] UART Recv: @1[
C=]

0D0A433D
[2018-05-27 23:28:03 105] UART Send: [RFF
]

5246460D
[2018-05-27 23:28:03 239] UART Recv: @1[RFF
++101
C=]

5246460D0A2B2B3130310D0A433D
[2018-05-27 23:28:03 241] UART Send: [RKM
]

524B4D0D
[2018-05-27 23:28:03 368] UART Recv: @1[RKM
00.00

00.00
C=]

524B4D0D30302E30300D200D30302E30300D0A433D
[2018-05-27 23:28:05 336] Exception[System.FormatException: String was not recognized as a valid DateTime.
   at System.DateTimeParse.Parse(String s, DateTimeFormatInfo dtfi, DateTimeStyles styles)
   at System.Convert.ToDateTime(String value)
   at XRD_Tool.FormDeviceInit.WarmUpCheck() in d:\PCTool\XRD_Tool_20180527_2100\XRD_Tool\XRD_Tool\FormDeviceInit.cs:line 495]

[2018-05-27 23:28:05 338] UART Send: [PAR
]

5041520D
[2018-05-27 23:28:05 461] UART Recv: @1[PAR
LWL30
UPL75
SPE0.02
STP0.02
INT0.05
MXN10
MXT1
MXS0.005
MOD3
WAV1.48564
TSZ 45.3500
TDZ 19.3150

C=]

5041520D0A4C574C33300D0A55504C37350D0A535045302E30320D0A535450302E30320D0A494E54302E30350D0A4D584E31300D0A4D5854310D0A4D5853302E3030350D0A4D4F44330D0A574156312E34383536340D0A54535A2034352E333530300D0A54445A2031392E333135300D0A0A433D
[2018-05-27 23:28:05 462] UART Send: [PAF
]

5041460D
[2018-05-27 23:28:05 589] UART Recv: @1[PAF
]

5041460D
[2018-05-27 23:28:05 876] UART Recv: @1[
ZTA-003.3647

ZTB-001.1079

ZTX-035.0000

ZTY-050.3295

ZTZ-005.0000

STP000.0200

INT001.0000

SPE0048

C=]

0A5A54412D3030332E333634370D0A0A5A54422D3030312E313037390D0A0A5A54582D3033352E303030300D0A0A5A54592D3035302E333239350D0A0A5A545A2D3030352E303030300D0A0A5354503030302E303230300D0A0A494E543030312E303030300D0A0A535045303034380D0A0A433D
[2018-05-27 23:28:05 878] UART Send: [SDP2
]

534450320D
[2018-05-27 23:28:06 004] UART Recv: @1[SDP2
]

534450320D
[2018-05-27 23:28:06 147] UART Recv: @1[
C=]

0A433D
[2018-05-27 23:28:15 056] TCP Send: [-reset]

2D7265736574
[2018-05-27 23:28:17 659] TCP Send: [-settings Cr]

2D73657474696E6773204372
[2018-05-27 23:28:17 660] TCP Recv: []

00000000
[2018-05-27 23:29:05 369] UART Send: [/
]

2F0D
[2018-05-27 23:29:05 505] UART Recv: @2[
C=]

0D0A433D
[2018-05-27 23:29:06 665] UART Send: [/
]

2F0D
[2018-05-27 23:29:06 798] UART Recv: @2[
C=]

0D0A433D
[2018-05-27 23:29:07 048] UART Send: [/
]

2F0D
[2018-05-27 23:29:07 181] UART Recv: @2[
C=]

0D0A433D
[2018-05-27 23:29:07 224] UART Send: [/
]

2F0D
[2018-05-27 23:29:07 357] UART Recv: @2[
C=]

0D0A433D
[2018-05-27 23:29:28 375] UART Send: [
]

0D
[2018-05-27 23:29:28 522] UART Recv: @1[
C=]

0D0A433D
[2018-05-27 23:29:28 524] UART Send: [RFF
]

5246460D
[2018-05-27 23:29:28 661] UART Recv: @1[RFF
++101
C=]

5246460D0A2B2B3130310D0A433D
[2018-05-27 23:29:28 662] UART Send: [RKM
]

524B4D0D
[2018-05-27 23:29:28 790] UART Recv: @1[RKM
00.00

00.00
C=]

524B4D0D30302E30300D200D30302E30300D0A433D
[2018-05-27 23:29:31 785] Exception[System.FormatException: String was not recognized as a valid DateTime.
   at System.DateTimeParse.Parse(String s, DateTimeFormatInfo dtfi, DateTimeStyles styles)
   at System.Convert.ToDateTime(String value)
   at XRD_Tool.FormDeviceInit.WarmUpCheck() in d:\PCTool\XRD_Tool_20180527_2100\XRD_Tool\XRD_Tool\FormDeviceInit.cs:line 495]

[2018-05-27 23:29:31 785] UART Send: [PAR
]

5041520D
[2018-05-27 23:29:31 907] UART Recv: @1[PAR
LWL30
UPL75
SPE0.02
STP0.02
INT0.05
MXN10
MXT1
MXS0.005
MOD3
WAV1.48564
TSZ 45.3500
TDZ 19.3150

C=]

5041520D0A4C574C33300D0A55504C37350D0A535045302E30320D0A535450302E30320D0A494E54302E30350D0A4D584E31300D0A4D5854310D0A4D5853302E3030350D0A4D4F44330D0A574156312E34383536340D0A54535A2034352E333530300D0A54445A2031392E333135300D0A0A433D
[2018-05-27 23:29:31 909] UART Send: [PAF
]

5041460D
[2018-05-27 23:29:32 034] UART Recv: @1[PAF
]

5041460D
[2018-05-27 23:29:32 322] UART Recv: @1[
ZTA-003.3647

ZTB-001.1079

ZTX-035.0000

ZTY-050.3295

ZTZ-005.0000

STP000.0200

INT001.0000

SPE0048

C=]

0A5A54412D3030332E333634370D0A0A5A54422D3030312E313037390D0A0A5A54582D3033352E303030300D0A0A5A54592D3035302E333239350D0A0A5A545A2D3030352E303030300D0A0A5354503030302E303230300D0A0A494E543030312E303030300D0A0A535045303034380D0A0A433D
[2018-05-27 23:29:32 323] UART Send: [SDP2
]

534450320D
[2018-05-27 23:29:32 449] UART Recv: @1[SDP2
]

534450320D
[2018-05-27 23:29:32 593] UART Recv: @1[
C=]

0A433D
[2018-05-27 23:29:32 607] TCP Send: [-reset]

2D7265736574
[2018-05-27 23:29:35 209] TCP Send: [-settings Cr]

2D73657474696E6773204372
[2018-05-27 23:29:35 210] TCP Recv: []

00000000
[2018-05-27 23:30:45 382] UART Send: [
]

0D
[2018-05-27 23:30:45 507] UART Recv: @1[
C=]

0D0A433D
[2018-05-27 23:30:45 510] UART Send: [RFF
]

5246460D
[2018-05-27 23:30:45 632] UART Recv: @1[RFF
++101
C=]

5246460D0A2B2B3130310D0A433D
[2018-05-27 23:30:45 636] UART Send: [RKM
]

524B4D0D
[2018-05-27 23:30:45 760] UART Recv: @1[RKM
00.00

00.00
C=]

524B4D0D30302E30300D200D30302E30300D0A433D
[2018-05-27 23:31:24 284] UART Send: [/
]

2F0D
[2018-05-27 23:31:24 416] UART Recv: @2[
C=]

0D0A433D
[2018-05-27 23:31:44 304] UART Send: [
]

0D
[2018-05-27 23:31:44 438] UART Recv: @1[
C=]

0D0A433D
[2018-05-27 23:31:44 440] UART Send: [RFF
]

5246460D
[2018-05-27 23:31:44 563] UART Recv: @1[RFF
++101
C=]

5246460D0A2B2B3130310D0A433D
[2018-05-27 23:31:44 565] UART Send: [RKM
]

524B4D0D
[2018-05-27 23:31:44 691] UART Recv: @1[RKM
00.00

00.00
C=]

524B4D0D30302E30300D200D30302E30300D0A433D
[2018-05-27 23:31:46 300] Exception[System.FormatException: String was not recognized as a valid DateTime.
   at System.DateTimeParse.Parse(String s, DateTimeFormatInfo dtfi, DateTimeStyles styles)
   at System.Convert.ToDateTime(String value)
   at XRD_Tool.FormDeviceInit.WarmUpCheck() in d:\PCTool\XRD_Tool_20180527_2100\XRD_Tool\XRD_Tool\FormDeviceInit.cs:line 495]

[2018-05-27 23:31:46 301] UART Send: [PAR
]

5041520D
[2018-05-27 23:31:46 434] UART Recv: @1[PAR
LWL30
UPL75
SPE0.02
STP0.02
INT0.05
MXN10
MXT1
MXS0.005
MOD3
WAV1.48564
TSZ 45.3500
TDZ 19.3150

C=]

5041520D0A4C574C33300D0A55504C37350D0A535045302E30320D0A535450302E30320D0A494E54302E30350D0A4D584E31300D0A4D5854310D0A4D5853302E3030350D0A4D4F44330D0A574156312E34383536340D0A54535A2034352E333530300D0A54445A2031392E333135300D0A0A433D
[2018-05-27 23:31:46 436] UART Send: [PAF
]

5041460D
[2018-05-27 23:31:46 562] UART Recv: @1[PAF
]

5041460D
[2018-05-27 23:31:46 849] UART Recv: @1[
ZTA-003.3647

ZTB-001.1079

ZTX-035.0000

ZTY-050.3295

ZTZ-005.0000

STP000.0200

INT001.0000

SPE0048

C=]

0A5A54412D3030332E333634370D0A0A5A54422D3030312E313037390D0A0A5A54582D3033352E303030300D0A0A5A54592D3035302E333239350D0A0A5A545A2D3030352E303030300D0A0A5354503030302E303230300D0A0A494E543030312E303030300D0A0A535045303034380D0A0A433D
[2018-05-27 23:31:46 850] UART Send: [SDP2
]

534450320D
[2018-05-27 23:31:46 977] UART Recv: @1[SDP2
]

534450320D
[2018-05-27 23:31:47 121] UART Recv: @1[
C=]

0A433D
[2018-05-27 23:31:47 141] TCP Send: [-reset]

2D7265736574
[2018-05-27 23:31:49 741] TCP Send: [-settings Cr]

2D73657474696E6773204372
[2018-05-27 23:31:49 742] TCP Recv: []

00000000
[2018-05-27 23:34:06 491] TCP Send: [-start]

2D7374617274