File: XRD_Tool/XRD_Tool/bin/Debug/LDA_sample_name_56789_Psi-0_20180603-114137.txt
137.2000     233
137.3200     229
137.4400     255
137.5600     251
137.6800     254
137.8000     256
137.9200     252
138.0400     232
138.1600     221
138.2800     250
138.4000     242
138.5200     243
138.6400     261
138.7600     259
138.8800     253
139.0000     292
139.1200     277
139.2400     249
139.3600     275
139.4800     305
139.6000     225
139.7200     266
139.8400     268
139.9600     255
140.0800     284
140.2000     275
140.3200     249
140.4400     277
140.5600     269
140.6800     236
140.8000     264
140.9200     255
141.0400     257
141.1600     261
141.2800     266
141.4000     277
141.5200     264
141.6400     249
141.7600     245
141.8800     293
142.0000     278
142.1200     247
142.2400     265
142.3600     265
142.4800     258
142.6000     252
142.7200     263
142.8400     287
142.9600     260
143.0800     260
143.2000     233
143.3200     255
143.4400     279
143.5600     261
143.6800     255
143.8000     267
143.9200     255
144.0400     251
144.1600     278
144.2800     268
144.4000     271
144.5200     282
144.6400     271
144.7600     292
144.8800     271
145.0000     298
145.1200     231
145.2400     257
145.3600     272
145.4800     258
145.6000     277
145.7200     248
145.8400     290
145.9600     275
146.0800     280
146.2000     287
146.3200     249
146.4400     262
146.5600     255
146.6800     253
146.8000     243
146.9200     287
147.0400     268
147.1600     307
147.2800     273
147.4000     250
147.5200     290
147.6400     291
147.7600     303
147.8800     298
148.0000     316
148.1200     275
148.2400     278
148.3600     271
148.4800     288
148.6000     282
148.7200     286
148.8400     263
148.9600     263
149.0800     285
149.2000     288
149.3200     289
149.4400     313
149.5600     304
149.6800     313
149.8000     314
149.9200     311
150.0400     319
150.1600     336
150.2800     305
150.4000     317
150.5200     329
150.6400     326
150.7600     305
150.8800     296
151.0000     325
151.1200     333
151.2400     326
151.3600     306
151.4800     332
151.6000     343
151.7200     354
151.8400     356
151.9600     386
152.0800     379
152.2000     401
152.3200     394
152.4400     397
152.5600     477
152.6800     463
152.8000     464
152.9200     498
153.0400     492
153.1600     545
153.2800     554
153.4000     601
153.5200     641
153.6400     606
153.7600     633
153.8800     729
154.0000     681
154.1200     741
154.2400     761
154.3600     722
154.4800     741
154.6000     768
154.7200     748
154.8400     772
154.9600     798
155.0800     772
155.2000     747
155.3200     703
155.4400     672
155.5600     611
155.6800     604
155.8000     630
155.9200     602
156.0400     513
156.1600     549
156.2800     487
156.4000     476
156.5200     506
156.6400     483
156.7600     455
156.8800     439
157.0000     426
157.1200     426
157.2400     385
157.3600     398
157.4800     363
157.6000     398
157.7200     414
157.8400     407
157.9600     378
158.0800     348
158.2000     318
158.3200     350
158.4400     318
158.5600     338
158.6800     333
158.8000     321
158.9200     310
159.0400     297
159.1600     310
159.2800     321
159.4000     331
159.5200     285
159.6400     333
159.7600     314
159.8800     313
160.0000     282
160.1200     324
160.2400     247
160.3600     289
160.4800     259
160.6000     303
160.7200     283
160.8400     280
160.9600     296
161.0800     280
161.2000     286
161.3200     272
161.4400     267
161.5600     296
161.6800     258
161.8000     287
161.9200     265
162.0400     267
162.1600     294
162.2800     267
162.4000     271
162.5200     292
162.6400     276
162.7600     265