File: XRD_Tool/XRD_Tool/bin/Debug/LDA_sample_name_56789_Psi-24_20180623-125435.txt
138.0000     216
138.0800     283
138.1600     254
138.2400     145
138.3200     208
138.4000     208
138.4800     256
138.5600     285
138.6400     178
138.7200     229
138.8000     233
138.8800     286
138.9600     233
139.0400     140
139.1200     316
139.2000     320
139.2800     236
139.3600     227
139.4400     279
139.5200     213
139.6000     127
139.6800     201
139.7600     235
139.8400     158
139.9200     286
140.0000     204
140.0800     191
140.1600     229
140.2400     240
140.3200     199
140.4000     340
140.4800     259
140.5600     219
140.6400     313
140.7200     192
140.8000     167
140.8800     213
140.9600     253
141.0400     289
141.1200     208
141.2000     158
141.2800     270
141.3600     184
141.4400     241
141.5200     316
141.6000     276
141.6800     222
141.7600     244
141.8400     305
141.9200     200
142.0000     262
142.0800     238
142.1600     206
142.2400     148
142.3200     247
142.4000     264
142.4800     325
142.5600     264
142.6400     277
142.7200     298
142.8000     278
142.8800     267
142.9600     398
143.0400     263
143.1200     268
143.2000     348
143.2800     305
143.3600     267
143.4400     272
143.5200     272
143.6000     269
143.6800     276
143.7600     321
143.8400     311
143.9200     273
144.0000     361
144.0800     379
144.1600     214
144.2400     238
144.3200     391
144.4000     293
144.4800     319
144.5600     286
144.6400     348
144.7200     295
144.8000     251
144.8800     354
144.9600     324
145.0400     371
145.1200     221
145.2000     363
145.2800     279
145.3600     386
145.4400     253
145.5200     358
145.6000     380
145.6800     320
145.7600     394
145.8400     340
145.9200     244
146.0000     415
146.0800     275
146.1600     267
146.2400     384
146.3200     251
146.4000     410
146.4800     335
146.5600     273
146.6400     361
146.7200     303
146.8000     402
146.8800     271
146.9600     438
147.0400     349
147.1200     394
147.2000     498
147.2800     379
147.3600     368
147.4400     387
147.5200     404
147.6000     459
147.6800     358
147.7600     444
147.8400     396
147.9200     485
148.0000     432
148.0800     351
148.1600     392
148.2400     365
148.3200     443
148.4000     455
148.4800     360
148.5600     393
148.6400     378
148.7200     429
148.8000     442
148.8800     388
148.9600     336
149.0400     445
149.1200     447
149.2000     440
149.2800     512
149.3600     438
149.4400     540
149.5200     425
149.6000     501
149.6800     392
149.7600     503
149.8400     426
149.9200     480
150.0000     494
150.0800     496
150.1600     450
150.2400     477
150.3200     551
150.4000     544
150.4800     638
150.5600     535
150.6400     570
150.7200     466
150.8000     559
150.8800     484
150.9600     613
151.0400     652
151.1200     627
151.2000     528
151.2800     564
151.3600     619
151.4400     699
151.5200     631
151.6000     735
151.6800     742
151.7600     695
151.8400     735
151.9200     752
152.0000     770
152.0800     849
152.1600     858
152.2400     844
152.3200     986
152.4000     884
152.4800    1008
152.5600    1080
152.6400    1132
152.7200    1328
152.8000    1403
152.8800    1356
152.9600    1405
153.0400    1393
153.1200    1510
153.2000    1529
153.2800    1587
153.3600    1766
153.4400    1779
153.5200    1916
153.6000    1929
153.6800    2100
153.7600    2188
153.8400    2162
153.9200    2102
154.0000    2157
154.0800    2153
154.1600    2436
154.2400    2108
154.3200    2395
154.4000    2302
154.4800    2292
154.5600    2581
154.6400    2184
154.7200    2151
154.8000    2110
154.8800    2211
154.9600    2238
155.0400    2324
155.1200    2063
155.2000    2012
155.2800    2048
155.3600    2005
155.4400    1672
155.5200    1737
155.6000    1544
155.6800    1535
155.7600    1472
155.8400    1651
155.9200    1370
156.0000    1231
156.0800    1304
156.1600    1329
156.2400    1137
156.3200    1127
156.4000    1156
156.4800    1193
156.5600    1025
156.6400     974
156.7200     918
156.8000     977
156.8800     963
156.9600     794
157.0400     781
157.1200     784
157.2000     739
157.2800     816
157.3600     657
157.4400     709
157.5200     658
157.6000     628
157.6800     743
157.7600     632
157.8400     635
157.9200     670
158.0000     692
158.0800     570
158.1600     645
158.2400     606
158.3200     564
158.4000     636
158.4800     630
158.5600     686
158.6400     586
158.7200     689
158.8000     344
158.8800     602
158.9600     554
159.0400     577
159.1200     520
159.2000     595
159.2800     672
159.3600     547
159.4400     581
159.5200     498
159.6000     491
159.6800     479
159.7600     555
159.8400     418
159.9200     420
160.0000     517
160.0800     414
160.1600     477
160.2400     465
160.3200     407
160.4000     520
160.4800     386
160.5600     463
160.6400     446
160.7200     402
160.8000     403
160.8800     340
160.9600     472
161.0400     431
161.1200     417
161.2000     499
161.2800     320
161.3600     364
161.4400     441
161.5200     334
161.6000     339
161.6800     419
161.7600     452
161.8400     408
161.9200     388
161.9800     311