File: XRD_Tool/XRD_Tool/bin/Debug/LDA_sample_name_56789_Psi-0_20180623-000534.txt
138.0000     299
138.0800     285
138.1600     132
138.2400     241
138.3200     193
138.4000     215
138.4800     169
138.5600     272
138.6400     317
138.7200     297
138.8000     261
138.8800     273
138.9600     296
139.0400     251
139.1200     240
139.2000     259
139.2800     236
139.3600     200
139.4400     200
139.5200     242
139.6000     239
139.6800     266
139.7600     208
139.8400     235
139.9200     262
140.0000     167
140.0800     201
140.1600     281
140.2400     311
140.3200     270
140.4000     363
140.4800     248
140.5600     248
140.6400     264
140.7200     284
140.8000     241
140.8800     187
140.9600     386
141.0400     208
141.1200     269
141.2000     271
141.2800     221
141.3600     300
141.4400     235
141.5200     219
141.6000     299
141.6800     250
141.7600     274
141.8400     210
141.9200     264
142.0000     291
142.0800     303
142.1600     215
142.2400     363
142.3200     327
142.4000     322
142.4800     395
142.5600     271
142.6400     309
142.7200     321
142.8000     293
142.8800     337
142.9600     373
143.0400     283
143.1200     341
143.2000     365
143.2800     329
143.3600     383
143.4400     283
143.5200     213
143.6000     264
143.6800     325
143.7600     270
143.8400     304
143.9200     334
144.0000     323
144.0800     405
144.1600     464
144.2400     282
144.3200     354
144.4000     330
144.4800     320
144.5600     310
144.6400     302
144.7200     383
144.8000     313
144.8800     288
144.9600     343
145.0400     313
145.1200     265
145.2000     297
145.2800     305
145.3600     352
145.4400     315
145.5200     289
145.6000     377
145.6800     347
145.7600     338
145.8400     343
145.9200     202
146.0000     237
146.0800     371
146.1600     411
146.2400     273
146.3200     353
146.4000     293
146.4800     365
146.5600     343
146.6400     247
146.7200     311
146.8000     324
146.8800     337
146.9600     329
147.0400     234
147.1200     319
147.2000     254
147.2800     244
147.3600     385
147.4400     349
147.5200     389
147.6000     429
147.6800     345
147.7600     377
147.8400     410
147.9200     402
148.0000     312
148.0800     286
148.1600     412
148.2400     392
148.3200     378
148.4000     360
148.4800     401
148.5600     382
148.6400     413
148.7200     434
148.8000     327
148.8800     365
148.9600     448
149.0400     299
149.1200     504
149.2000     382
149.2800     365
149.3600     416
149.4400     416
149.5200     431
149.6000     461
149.6800     499
149.7600     435
149.8400     479
149.9200     596
150.0000     488
150.0800     423
150.1600     490
150.2400     359
150.3200     479
150.4000     491
150.4800     497
150.5600     474
150.6400     475
150.7200     487
150.8000     666
150.8800     579
150.9600     468
151.0400     534
151.1200     674
151.2000     633
151.2800     622
151.3600     822
151.4400     792
151.5200     771
151.6000     760
151.6800     818
151.7600     904
151.8400     854
151.9200     875
152.0000     884
152.0800     992
152.1600     972
152.2400    1038
152.3200    1178
152.4000    1181
152.4800    1408
152.5600    1389
152.6400    1390
152.7200    1680
152.8000    1553
152.8800    1861
152.9600    1800
153.0400    1923
153.1200    1944
153.2000    2065
153.2800    2066
153.3600    2260
153.4400    2377
153.5200    2716
153.6000    2508
153.6800    2626
153.7600    2611
153.8400    2701
153.9200    2724
154.0000    2493
154.0800    2524
154.1600    2853
154.2400    2810
154.3200    2553
154.4000    2592
154.4800    2460
154.5600    2669
154.6400    2275
154.7200    2512
154.8000    2228
154.8800    2350
154.9600    2279
155.0400    2069
155.1200    1919
155.2000    2001
155.2800    1788
155.3600    1817
155.4400    1615
155.5200    1736
155.6000    1411
155.6800    1478
155.7600    1314
155.8400    1451
155.9200    1198
156.0000    1414
156.0800    1251
156.1600    1330
156.2400    1139
156.3200     989
156.4000    1089
156.4800    1091
156.5600     943
156.6400     766
156.7200     948
156.8000     735
156.8800     719
156.9600     830
157.0400     726
157.1200     788
157.2000     594
157.2800     722
157.3600     782
157.4400     571
157.5200     535
157.6000     633
157.6800     722
157.7600     654
157.8400     719
157.9200     587
158.0000     655
158.0800     536
158.1600     544
158.2400     602
158.3200     456
158.4000     515
158.4800     544
158.5600     445
158.6400     394
158.7200     483
158.8000     413
158.8800     446
158.9600     420
159.0400     385
159.1200     443
159.2000     425
159.2800     505
159.3600     387
159.4400     449
159.5200     306
159.6000     501
159.6800     338
159.7600     439
159.8400     371
159.9200     329
160.0000     402
160.0800     394
160.1600     345
160.2400     376
160.3200     379
160.4000     363
160.4800     409
160.5600     385
160.6400     286
160.7200     253
160.8000     303
160.8800     313
160.9600     300
161.0400     344
161.1200     260
161.2000     326
161.2800     215
161.3600     291
161.4400     277
161.5200     293
161.6000     315
161.6800     294
161.7600     213
161.8400     210
161.9200     324
161.9800     274