File: XRD_Tool/XRD_Tool/bin/Debug/LDA_sample_name_56789_Psi-0_20180603-104706.txt
150.0000      63
150.1200      63
150.2400     280
150.3600     259
150.4800      63
150.6000     271
150.7200     262
150.8400      63
150.9600     257
151.0800      63
151.2000     283
151.3200      63
151.4400      63
151.5600     261
151.6800      63
151.8000      63
151.9200     283
152.0400     272
152.1600     276
152.2800      63
152.4000      63
152.5200     271
152.6400      63
152.7600      63
152.8800      63
153.0000      63
153.1200     265
153.2400     259
153.3600     279
153.4800      63
153.6000     261
153.7200     260
153.8400      63
153.9600      63
154.0800     258
154.2000      63
154.3200      63
154.4400      63
154.5600      63
154.6800     288
154.8000      63
154.9200     259
155.0400     261
155.1600      63
155.2800     290
155.4000     256
155.5200     268
155.6400     290
155.7600     277
155.8800     279
156.0000      63
156.1200     272
156.2400      63
156.3600     257
156.4800     272
156.6000      63
156.7200     295
156.8400     263
156.9600     271
157.0800     290
157.2000     266
157.3200     281
157.4400     268
157.5600     261
157.6800     269
157.8000      63
157.9200     293
158.0400     277
158.1600     277
158.2800     296
158.4000     282
158.5200     256
158.6400      63
158.7600     258
158.8800     298
159.0000     286
159.1200     271
159.2400     271
159.3600     279
159.4800     268
159.6000      63
159.7200     278
159.8400     259
159.9600     283
160.0800     277
160.2000     273
160.3200     292
160.4400     299
160.5600     298
160.6800     266
160.8000     277
160.9200     269
161.0400     287
161.1600     291
161.2800     314
161.4000     277
161.5200     297
161.6400     306
161.7600     312
161.8800     288
162.0000     293
162.1200     299
162.2400     258
162.3600     319
162.4800     304
162.6000     298
162.7200     323
162.8400     309
162.9600     308
163.0800     315
163.2000     305
163.3200     327
163.4400     317
163.5600     329
163.6800     344
163.8000     311
163.9200     337
164.0400     317
164.1600     338
164.2800     369
164.4000     316
164.5200     368
164.6400     339
164.7600     370
164.8800     319
165.0000     340
165.1200     319
165.2400     319
165.3600     319
165.4800     319
165.6000     319
165.7200     521
165.8400     539
165.9600     568
166.0800     600
166.2000     635
166.3200     575
166.4400     634
166.5600     575
166.6800     575
166.8000     575
166.9200     575
167.0400     575
167.1600     575
167.2800     575
167.4000     797
167.5200     775
167.6400     788
167.7600     575
167.8800     788
168.0000     575
168.1200     575
168.2400     575
168.3600     627
168.4800     608
168.6000     634
168.7200     571
168.8400     554
168.9600     554
169.0800     536
169.2000     319
169.3200     319
169.4400     319
169.5600     319
169.6800     319
169.8000     319
169.9200     319
170.0400     319
170.1600     319
170.2800     376
170.4000     364
170.5200     372
170.6400     319
170.7600     362
170.8800     353
171.0000     364
171.1200     363
171.2400     347
171.3600     326
171.4800     301
171.6000     287
171.7200     299
171.8400     337
171.9600     296
172.0800     319
172.2000     283
172.3200     304
172.4400     280
172.5600     321
172.6800     285
172.8000     307
172.9200     301
173.0400     321
173.1600     273
173.2800     303
173.4000     287
173.5200     284
173.6400     277
173.7600     269
173.8800     293
174.0000     271
174.1200      63
174.2400     308
174.3600     287
174.4800     286
174.6000     297
174.7200     258
174.8400      63
174.9600     305
175.0800      63
175.2000     272
175.3200     272
175.4400     257
175.5600      63