File: XRD_Tool/XRD_Tool/bin/Debug/LDA_sample_name_56789_Psi-0_20180623-123611.txt
138.0000     251
138.0800     167
138.1600     233
138.2400     300
138.3200     334
138.4000     215
138.4800     248
138.5600     227
138.6400     227
138.7200     231
138.8000     214
138.8800     236
138.9600     207
139.0400     208
139.1200     228
139.2000     276
139.2800     205
139.3600     267
139.4400     216
139.5200     135
139.6000     194
139.6800     237
139.7600     117
139.8400     203
139.9200     351
140.0000     193
140.0800     231
140.1600     209
140.2400     300
140.3200     257
140.4000     201
140.4800     195
140.5600     246
140.6400     216
140.7200     201
140.8000     247
140.8800     277
140.9600     292
141.0400     271
141.1200     290
141.2000     240
141.2800     305
141.3600     259
141.4400     215
141.5200     223
141.6000     266
141.6800     124
141.7600     265
141.8400     272
141.9200     181
142.0000     276
142.0800     213
142.1600     242
142.2400     294
142.3200     276
142.4000     259
142.4800     357
142.5600     325
142.6400     258
142.7200     256
142.8000     246
142.8800     258
142.9600     417
143.0400     308
143.1200     236
143.2000     300
143.2800     323
143.3600     313
143.4400     278
143.5200     337
143.6000     324
143.6800     301
143.7600     250
143.8400     261
143.9200     268
144.0000     376
144.0800     325
144.1600     287
144.2400     329
144.3200     285
144.4000     270
144.4800     381
144.5600     370
144.6400     320
144.7200     218
144.8000     281
144.8800     390
144.9600     271
145.0400     280
145.1200     320
145.2000     283
145.2800     302
145.3600     234
145.4400     265
145.5200     279
145.6000     345
145.6800     333
145.7600     416
145.8400     220
145.9200     271
146.0000     232
146.0800     294
146.1600     303
146.2400     315
146.3200     326
146.4000     318
146.4800     359
146.5600     229
146.6400     280
146.7200     339
146.8000     283
146.8800     283
146.9600     323
147.0400     282
147.1200     353
147.2000     350
147.2800     287
147.3600     316
147.4400     265
147.5200     459
147.6000     444
147.6800     395
147.7600     389
147.8400     335
147.9200     340
148.0000     419
148.0800     443
148.1600     355
148.2400     435
148.3200     353
148.4000     429
148.4800     377
148.5600     405
148.6400     518
148.7200     373
148.8000     306
148.8800     350
148.9600     281
149.0400     374
149.1200     375
149.2000     341
149.2800     445
149.3600     437
149.4400     471
149.5200     381
149.6000     483
149.6800     429
149.7600     383
149.8400     409
149.9200     496
150.0000     491
150.0800     442
150.1600     436
150.2400     457
150.3200     467
150.4000     539
150.4800     574
150.5600     579
150.6400     585
150.7200     554
150.8000     539
150.8800     600
150.9600     662
151.0400     486
151.1200     584
151.2000     561
151.2800     743
151.3600     691
151.4400     748
151.5200     722
151.6000     733
151.6800     787
151.7600     839
151.8400     777
151.9200     831
152.0000     908
152.0800     896
152.1600     977
152.2400     973
152.3200    1114
152.4000    1255
152.4800    1209
152.5600    1381
152.6400    1508
152.7200    1425
152.8000    1654
152.8800    1670
152.9600    1717
153.0400    1779
153.1200    1937
153.2000    2091
153.2800    2066
153.3600    2185
153.4400    2148
153.5200    2320
153.6000    2567
153.6800    2540
153.7600    2647
153.8400    2717
153.9200    2661
154.0000    2585
154.0800    2558
154.1600    2709
154.2400    2664
154.3200    2518
154.4000    2511
154.4800    2545
154.5600    2551
154.6400    2403
154.7200    2479
154.8000    2224
154.8800    2225
154.9600    2387
155.0400    2185
155.1200    1832
155.2000    1905
155.2800    1773
155.3600    1825
155.4400    1642
155.5200    1563
155.6000    1452
155.6800    1419
155.7600    1336
155.8400    1397
155.9200    1293
156.0000    1224
156.0800    1173
156.1600    1152
156.2400    1152
156.3200    1019
156.4000     940
156.4800     963
156.5600     830
156.6400     872
156.7200     787
156.8000     867
156.8800     862
156.9600     642
157.0400     614
157.1200     694
157.2000     668
157.2800     712
157.3600     687
157.4400     609
157.5200     625
157.6000     643
157.6800     712
157.7600     703
157.8400     532
157.9200     466
158.0000     663
158.0800     581
158.1600     581
158.2400     418
158.3200     461
158.4000     546
158.4800     343
158.5600     490
158.6400     404
158.7200     436
158.8000     428
158.8800     501
158.9600     507
159.0400     426
159.1200     388
159.2000     399
159.2800     428
159.3600     416
159.4400     359
159.5200     271
159.6000     498
159.6800     324
159.7600     395
159.8400     372
159.9200     386
160.0000     371
160.0800     469
160.1600     395
160.2400     379
160.3200     374
160.4000     389
160.4800     336
160.5600     365
160.6400     315
160.7200     428
160.8000     378
160.8800     269
160.9600     284
161.0400     374
161.1200     301
161.2000     329
161.2800     384
161.3600     361
161.4400     256
161.5200     270
161.6000     328
161.6800     263
161.7600     241
161.8400     251
161.9200     270
161.9800     325