File: XRD_Tool/XRD_Tool/bin/Debug/LDA_sample_name_56789_Psi-45_20180623-000633.txt
138.0000     204
138.0800     223
138.1600     238
138.2400     169
138.3200     122
138.4000     138
138.4800     215
138.5600     195
138.6400     169
138.7200     199
138.8000     162
138.8800      82
138.9600     176
139.0400     238
139.1200     206
139.2000     196
139.2800     222
139.3600     247
139.4400     230
139.5200     245
139.6000     218
139.6800     212
139.7600     248
139.8400     230
139.9200     263
140.0000     168
140.0800     258
140.1600     195
140.2400     268
140.3200     264
140.4000     169
140.4800     216
140.5600     272
140.6400     234
140.7200     238
140.8000     266
140.8800     257
140.9600     241
141.0400     256
141.1200     179
141.2000     206
141.2800     284
141.3600     290
141.4400     283
141.5200     250
141.6000     206
141.6800     293
141.7600     185
141.8400     235
141.9200     268
142.0000     272
142.0800     240
142.1600     237
142.2400     247
142.3200     321
142.4000     374
142.4800     320
142.5600     258
142.6400     347
142.7200     262
142.8000     271
142.8800     280
142.9600     264
143.0400     283
143.1200     332
143.2000     391
143.2800     348
143.3600     311
143.4400     293
143.5200     317
143.6000     324
143.6800     289
143.7600     384
143.8400     289
143.9200     343
144.0000     298
144.0800     386
144.1600     390
144.2400     405
144.3200     369
144.4000     364
144.4800     259
144.5600     308
144.6400     370
144.7200     318
144.8000     422
144.8800     361
144.9600     354
145.0400     301
145.1200     328
145.2000     413
145.2800     360
145.3600     407
145.4400     420
145.5200     300
145.6000     362
145.6800     360
145.7600     360
145.8400     399
145.9200     365
146.0000     307
146.0800     384
146.1600     381
146.2400     437
146.3200     373
146.4000     317
146.4800     384
146.5600     355
146.6400     460
146.7200     340
146.8000     388
146.8800     381
146.9600     431
147.0400     396
147.1200     432
147.2000     378
147.2800     397
147.3600     472
147.4400     445
147.5200     380
147.6000     476
147.6800     459
147.7600     489
147.8400     415
147.9200     463
148.0000     517
148.0800     440
148.1600     429
148.2400     471
148.3200     404
148.4000     452
148.4800     503
148.5600     480
148.6400     420
148.7200     542
148.8000     451
148.8800     429
148.9600     423
149.0400     458
149.1200     462
149.2000     427
149.2800     556
149.3600     433
149.4400     538
149.5200     438
149.6000     497
149.6800     567
149.7600     519
149.8400     442
149.9200     526
150.0000     480
150.0800     484
150.1600     447
150.2400     499
150.3200     510
150.4000     563
150.4800     545
150.5600     535
150.6400     579
150.7200     573
150.8000     591
150.8800     465
150.9600     505
151.0400     483
151.1200     598
151.2000     594
151.2800     567
151.3600     587
151.4400     647
151.5200     713
151.6000     672
151.6800     686
151.7600     647
151.8400     724
151.9200     781
152.0000     722
152.0800     668
152.1600     657
152.2400     817
152.3200     846
152.4000     830
152.4800     791
152.5600     998
152.6400    1007
152.7200     917
152.8000     996
152.8800    1058
152.9600    1067
153.0400    1085
153.1200    1210
153.2000    1275
153.2800    1252
153.3600    1241
153.4400    1371
153.5200    1405
153.6000    1470
153.6800    1586
153.7600    1573
153.8400    1625
153.9200    1740
154.0000    1562
154.0800    1797
154.1600    1974
154.2400    1779
154.3200    1902
154.4000    1875
154.4800    1970
154.5600    2048
154.6400    2181
154.7200    2029
154.8000    2150
154.8800    2056
154.9600    2118
155.0400    2081
155.1200    2038
155.2000    2058
155.2800    2108
155.3600    1925
155.4400    1761
155.5200    1966
155.6000    2007
155.6800    1866
155.7600    1778
155.8400    1823
155.9200    1598
156.0000    1646
156.0800    1488
156.1600    1599
156.2400    1598
156.3200    1365
156.4000    1480
156.4800    1452
156.5600    1329
156.6400    1256
156.7200    1228
156.8000    1170
156.8800    1197
156.9600    1181
157.0400    1145
157.1200    1192
157.2000    1017
157.2800     957
157.3600     977
157.4400     941
157.5200     889
157.6000     876
157.6800     953
157.7600     972
157.8400     899
157.9200     830
158.0000     844
158.0800     782
158.1600     849
158.2400     833
158.3200     720
158.4000     747
158.4800     849
158.5600     699
158.6400     759
158.7200     744
158.8000     670
158.8800     682
158.9600     696
159.0400     649
159.1200     700
159.2000     745
159.2800     687
159.3600     638
159.4400     611
159.5200     573
159.6000     657
159.6800     655
159.7600     663
159.8400     622
159.9200     699
160.0000     660
160.0800     664
160.1600     618
160.2400     701
160.3200     604
160.4000     555
160.4800     581
160.5600     602
160.6400     612
160.7200     654
160.8000     663
160.8800     641
160.9600     602
161.0400     533
161.1200     582
161.2000     633
161.2800     507
161.3600     586
161.4400     580
161.5200     555
161.6000     560
161.6800     537
161.7600     544
161.8400     520
161.9200     598
161.9800     558