File: XRD_Tool/XRD_Tool/bin/Debug/LDA_sample_name_56789_Psi-0_20180603-115211.txt
137.2000     206
137.3200     232
137.4400     270
137.5600     252
137.6800     261
137.8000     244
137.9200     245
138.0400     257
138.1600     261
138.2800     250
138.4000     235
138.5200     259
138.6400     241
138.7600     273
138.8800     265
139.0000     291
139.1200     265
139.2400     236
139.3600     238
139.4800     280
139.6000     278
139.7200     238
139.8400     246
139.9600     268
140.0800     261
140.2000     247
140.3200     260
140.4400     239
140.5600     231
140.6800     252
140.8000     272
140.9200     272
141.0400     278
141.1600     257
141.2800     233
141.4000     236
141.5200     253
141.6400     263
141.7600     271
141.8800     296
142.0000     265
142.1200     282
142.2400     276
142.3600     260
142.4800     264
142.6000     273
142.7200     284
142.8400     281
142.9600     262
143.0800     275
143.2000     251
143.3200     270
143.4400     265
143.5600     289
143.6800     289
143.8000     252
143.9200     276
144.0400     269
144.1600     309
144.2800     273
144.4000     285
144.5200     270
144.6400     286
144.7600     302
144.8800     286
145.0000     276
145.1200     247
145.2400     273
145.3600     252
145.4800     242
145.6000     258
145.7200     259
145.8400     265
145.9600     273
146.0800     282
146.2000     290
146.3200     256
146.4400     284
146.5600     272
146.6800     262
146.8000     279
146.9200     247
147.0400     267
147.1600     298
147.2800     297
147.4000     273
147.5200     265
147.6400     279
147.7600     315
147.8800     293
148.0000     289
148.1200     311
148.2400     289
148.3600     263
148.4800     293
148.6000     292
148.7200     285
148.8400     286
148.9600     287
149.0800     290
149.2000     302
149.3200     307
149.4400     264
149.5600     304
149.6800     306
149.8000     314
149.9200     285
150.0400     303
150.1600     316
150.2800     315
150.4000     325
150.5200     289
150.6400     283
150.7600     322
150.8800     323
151.0000     320
151.1200     343
151.2400     322
151.3600     343
151.4800     316
151.6000     333
151.7200     327
151.8400     343
151.9600     368
152.0800     410
152.2000     357
152.3200     386
152.4400     426
152.5600     437
152.6800     507
152.8000     465
152.9200     547
153.0400     549
153.1600     565
153.2800     590
153.4000     596
153.5200     658
153.6400     700
153.7600     669
153.8800     753
154.0000     723
154.1200     759
154.2400     742
154.3600     732
154.4800     746
154.6000     770
154.7200     708
154.8400     705
154.9600     765
155.0800     747
155.2000     715
155.3200     689
155.4400     652
155.5600     641
155.6800     598
155.8000     622
155.9200     553
156.0400     543
156.1600     533
156.2800     536
156.4000     484
156.5200     474
156.6400     446
156.7600     473
156.8800     418
157.0000     419
157.1200     409
157.2400     354
157.3600     386
157.4800     404
157.6000     367
157.7200     403
157.8400     372
157.9600     391
158.0800     343
158.2000     348
158.3200     336
158.4400     335
158.5600     367
158.6800     292
158.8000     347
158.9200     326
159.0400     334
159.1600     298
159.2800     300
159.4000     322
159.5200     300
159.6400     295
159.7600     300
159.8800     324
160.0000     318
160.1200     303
160.2400     278
160.3600     311
160.4800     304
160.6000     284
160.7200     305
160.8400     287
160.9600     298
161.0800     264
161.2000     276
161.3200     298
161.4400     275
161.5600     278
161.6800     262
161.8000     277
161.9200     294
162.0400     257
162.1600     272
162.2800     239
162.4000     273
162.5200     254
162.6400     253
162.7600     245