File: XRD_Tool/XRD_Tool/bin/Debug/LDA_sample_name_56789_Psi-24_20180623-125814.txt
138.0000     136
138.0800     116
138.1600     132
138.2400      84
138.3200     105
138.4000     135
138.4800      85
138.5600     110
138.6400      97
138.7200      98
138.8000      91
138.8800      91
138.9600     105
139.0400     107
139.1200     109
139.2000     105
139.2800      86
139.3600      89
139.4400     102
139.5200      64
139.6000      62
139.6800     132
139.7600     109
139.8400      82
139.9200      84
140.0000      68
140.0800     101
140.1600      97
140.2400     123
140.3200     100
140.4000      65
140.4800      59
140.5600      93
140.6400     123
140.7200     163
140.8000      74
140.8800      93
140.9600     143
141.0400     148
141.1200     119
141.2000     118
141.2800     110
141.3600      76
141.4400     131
141.5200     105
141.6000     113
141.6800     109
141.7600      87
141.8400     115
141.9200     136
142.0000      88
142.0800      66
142.1600      99
142.2400     117
142.3200     146
142.4000     103
142.4800     114
142.5600      97
142.6400     141
142.7200     126
142.8000     105
142.8800      98
142.9600      68
143.0400      84
143.1200     120
143.2000      61
143.2800      88
143.3600     102
143.4400     116
143.5200      88
143.6000     127
143.6800     106
143.7600      60
143.8400     114
143.9200      70
144.0000      49
144.0800      96
144.1600     111
144.2400     103
144.3200      95
144.4000      58
144.4800     102
144.5600     100
144.6400      79
144.7200      80
144.8000      59
144.8800      89
144.9600     112
145.0400      84
145.1200      75
145.2000      90
145.2800      78
145.3600      79
145.4400     114
145.5200      94
145.6000     116
145.6800      78
145.7600      67
145.8400      48
145.9200      97
146.0000     105
146.0800      78
146.1600      62
146.2400     105
146.3200     137
146.4000      62
146.4800      70
146.5600     109
146.6400      87
146.7200     130
146.8000     111
146.8800     110
146.9600      83
147.0400      65
147.1200     128
147.2000      79
147.2800     112
147.3600      74
147.4400      44
147.5200      89
147.6000     126
147.6800     111
147.7600      61
147.8400      27
147.9200      89
148.0000      71
148.0800      92
148.1600      78
148.2400      64
148.3200      91
148.4000      84
148.4800     130
148.5600      91
148.6400      93
148.7200      43
148.8000     140
148.8800     123
148.9600      92
149.0400      37
149.1200      87
149.2000      92
149.2800      72
149.3600      50
149.4400      93
149.5200      47
149.6000      90
149.6800      71
149.7600     107
149.8400     105
149.9200     120
150.0000      92
150.0800      71
150.1600      74
150.2400     127
150.3200      91
150.4000      80
150.4800     118
150.5600      71
150.6400     112
150.7200     107
150.8000      62
150.8800      89
150.9600     108
151.0400     106
151.1200      91
151.2000      80
151.2800      78
151.3600     143
151.4400      70
151.5200      93
151.6000      84
151.6800     101
151.7600      80
151.8400      71
151.9200      79
152.0000     115
152.0800      92
152.1600     107
152.2400     107
152.3200      84
152.4000     100
152.4800      74
152.5600      63
152.6400      87
152.7200      80
152.8000      65
152.8800      95
152.9600     106
153.0400      82
153.1200     105
153.2000     114
153.2800      74
153.3600     111
153.4400      90
153.5200     137
153.6000      56
153.6800     103
153.7600      88
153.8400      75
153.9200      84
154.0000     100
154.0800      94
154.1600      68
154.2400     108
154.3200      56
154.4000      71
154.4800      84
154.5600      89
154.6400      79
154.7200      26
154.8000      96
154.8800     123
154.9600      35
155.0400      66
155.1200     129
155.2000      35
155.2800      57
155.3600     104
155.4400      66
155.5200      72
155.6000      95
155.6800      97
155.7600      75
155.8400      96
155.9200      47
156.0000      74
156.0800      78
156.1600      28
156.2400      63
156.3200      96
156.4000      43
156.4800     104
156.5600      72
156.6400     108
156.7200      43
156.8000      63
156.8800      65
156.9600      62
157.0400      70
157.1200      72
157.2000      10
157.2800      51
157.3600      79
157.4400      61
157.5200      25
157.6000      83
157.6800     130
157.7600      56
157.8400     106
157.9200      64
158.0000     100
158.0800      44
158.1600      90
158.2400      55
158.3200      32
158.4000      77
158.4800      80
158.5600      15
158.6400      77
158.7200      75
158.8000      28
158.8800      60
158.9600      44
159.0400      30
159.1200      96
159.2000      72
159.2800      68
159.3600      73
159.4400      95
159.5200     100
159.6000      97
159.6800      19
159.7600      81
159.8400      74
159.9200      72
160.0000      21
160.0800      30
160.1600      65
160.2400     107
160.3200      81
160.4000      53
160.4800     110
160.5600      79
160.6400      94
160.7200      65
160.8000      71
160.8800     101
160.9600      35
161.0400      50
161.1200      52
161.2000      38
161.2800      77
161.3600      54
161.4400      44
161.5200      34
161.6000      56
161.6800      62
161.7600      31
161.8400      78
161.9200      72
161.9800      32