File: XRD_Tool/XRD_Tool/bin/Debug/LDA_sample_name_56789_Psi-0_20180622-204409.txt
127.2000      33
127.2000      -1
127.2000      12
127.2000      33
127.2000      42
127.2000      36
127.2000      56
127.2000       8
127.2000      56
127.2000      96
127.2000      34
127.2000       8
127.2000      18
127.2000       0
127.2000      14
127.2000      30
127.2000      22
127.2000      15
127.2000      47
127.2000      47
127.2000      43
127.2000      10
127.2000      77
127.2000      16
127.2000      -4
127.2000       8
127.2000      32
127.2000     -16
127.2000      42
127.2000       1
127.2000      21
127.2000      39
127.2000      28
127.2000      49
127.2000      45
127.2000      20
127.2000      24
127.2000      46
127.2000      35
127.2000      44
127.2000      31
127.2000      35
127.2000      43
127.2000      59
127.2000      21
127.2000      12
127.2000      44
127.2000      30
127.2000      22
127.2000      70
127.2000      74
127.2000      26
127.2000      -5
127.2000      47
127.2000      73
127.2000      54
127.2000      -5
127.2000      62
127.2000      38
127.2000      45
127.2000      62
127.2000      48
127.2000      26
127.2000      53
127.2000      53
127.2000      -7
127.2000      46
127.2000      31
127.2000      72
127.2000      51
127.2000      47
127.2000      44
127.2000      47
127.2000      48
127.2000      44
127.2000      28
127.2000      37
127.2000      39
127.2000      19
127.2000      24
127.2000      67
127.2000      58
127.2000      12
127.2000      33
127.2000      37
127.2000      23
127.2000      52
127.2000      29
127.2000      28
127.2000      49
127.2000      58
127.2000      10
127.2000      30
127.2000       7
127.2000      62
127.2000      33
127.2000     102
127.2000     115
127.2000      77
127.2000      70
127.2000      41
127.2000      28
127.2000      37
127.2000      66
127.2000      25
127.2000      37
127.2000      47
127.2000       7
127.2000      32
127.2000       7
127.2000      68
127.2000      76
127.2000      77
127.2000      58
127.2000      63
127.2000      39
127.2000      25
127.2000      80
127.2000      62
127.2000      27
127.2000      22
127.2000      42
127.2000      13
127.2000      51
127.2000      62
127.2000      44
127.2000      15
127.2000      39
127.2000      40
127.2000      14
127.2000       0
127.2000      50
127.2000      70
127.2000      41
127.2000      44
127.2000      29
127.2000      41
127.2000      49
127.2000      33
127.2000      55
127.2000      43
127.2000      -5
127.2000      33
127.2000     121
127.2000      29
127.2000      45
127.2000      62
127.2000      65
127.2000      20
127.2000      27
127.2000      60
127.2000      64
127.2000      56
127.2000      29
127.2000      32
127.2000      56
127.2000      54
127.2000      64
127.2000      60
127.2000      35
127.2000      46
127.2000      22
127.2000      32
127.2000      50
127.2000      51
127.2000      41
127.2000      56
127.2000       2
127.2000      12
127.2000      12
127.2000      45
127.2000      82
127.2000      21
127.2000      18
127.2000      40
127.2000      33
127.2000      40
127.2000      62
127.2000       9
127.2000       1
127.2000      48
127.2000      51
127.2000      61
127.2000      42
127.2000      67
127.2000      58
127.2000      33
127.2000      58
127.2000      78
127.2000      72
127.2000      37
127.2000      25
127.2000      31
127.2000      21
127.2000      80
127.2000      60
127.2000      39
127.2000      19
127.2000      18
127.2000      25
127.2000      31
127.2000      43
127.2000      79
127.2000      65
127.2000      40
127.2000      77
127.2000      45
127.2000      76
127.2000      70
127.2000      46
127.2000      30
127.2000       8
127.2000      15
127.2000      26
127.2000      -2
127.2000      55
127.2000      36
127.2000      12
127.2000      50
127.2000      19
127.2000      71
127.2000      29
127.2000      75
127.2000      10
127.2000      38
127.2000      78
127.2000       4
127.2000      32
127.2000      39
127.2000       7
127.2000      68
127.2000      46
127.2000      29
127.2000      61
127.2000      33
127.2000      47
127.2000      23
127.2000      40
127.2000      30
127.2000      23
127.2000      50
127.2000      12
127.2000      15
127.2000      61
127.2000      35
127.2000      61
127.2000      58
127.2000      61
127.2000      55
127.2000      24
127.2000      14
127.2000      22
127.2000      75
127.2000      41
127.2000      35
127.2000      73
127.2000      35
127.2000      42
127.2000      95
127.2000      54
127.2000      36
127.2000      63
127.2000      75
127.2000      55
127.2000      53
127.2000      13
127.2000      11
127.2000      48
127.2000      39
127.2000      51
127.2000      42
127.2000      25
127.2000      53
127.2000      63
127.2000      48
127.2000      95
127.2000      72
127.2000      61
127.2000      19
127.2000      77
127.2000      47
127.2000      87
127.2000      59
127.2000      58
127.2000      78
127.2000      27
127.2000      58
127.2000      57
127.2000      71
127.2000      36
127.2000      60
127.2000      48
127.2000      46
127.2000      77
127.2000      72
127.2000      72
127.2000      58
127.2000      33
127.2000      53
127.2000      71
127.2000      26