File: XRD_Tool/XRD_Tool/bin/Debug/LDA_sample_name_56789_Psi-30_20180623-000613.txt
138.0000     198
138.0800     175
138.1600     190
138.2400     195
138.3200     211
138.4000     185
138.4800     138
138.5600     131
138.6400     248
138.7200     124
138.8000     138
138.8800     154
138.9600     243
139.0400     276
139.1200     262
139.2000     282
139.2800     297
139.3600     178
139.4400     252
139.5200     207
139.6000     288
139.6800     189
139.7600     300
139.8400     142
139.9200     211
140.0000     175
140.0800     204
140.1600     222
140.2400     252
140.3200     221
140.4000     217
140.4800     265
140.5600     214
140.6400     193
140.7200     181
140.8000     384
140.8800     220
140.9600     230
141.0400     164
141.1200     241
141.2000     286
141.2800     250
141.3600     283
141.4400     258
141.5200     241
141.6000     235
141.6800     304
141.7600     217
141.8400     234
141.9200     216
142.0000     295
142.0800     216
142.1600     343
142.2400     210
142.3200     213
142.4000     308
142.4800     332
142.5600     220
142.6400     271
142.7200     340
142.8000     326
142.8800     330
142.9600     157
143.0400     344
143.1200     320
143.2000     281
143.2800     281
143.3600     355
143.4400     301
143.5200     291
143.6000     343
143.6800     351
143.7600     255
143.8400     229
143.9200     222
144.0000     291
144.0800     300
144.1600     387
144.2400     374
144.3200     341
144.4000     289
144.4800     345
144.5600     270
144.6400     342
144.7200     348
144.8000     329
144.8800     309
144.9600     373
145.0400     281
145.1200     347
145.2000     331
145.2800     364
145.3600     309
145.4400     339
145.5200     368
145.6000     289
145.6800     341
145.7600     277
145.8400     361
145.9200     365
146.0000     322
146.0800     382
146.1600     332
146.2400     343
146.3200     403
146.4000     489
146.4800     346
146.5600     380
146.6400     280
146.7200     352
146.8000     386
146.8800     316
146.9600     268
147.0400     306
147.1200     363
147.2000     263
147.2800     434
147.3600     331
147.4400     438
147.5200     398
147.6000     380
147.6800     460
147.7600     290
147.8400     413
147.9200     378
148.0000     485
148.0800     415
148.1600     481
148.2400     455
148.3200     465
148.4000     398
148.4800     323
148.5600     376
148.6400     481
148.7200     411
148.8000     444
148.8800     536
148.9600     328
149.0400     444
149.1200     387
149.2000     404
149.2800     521
149.3600     402
149.4400     409
149.5200     454
149.6000     515
149.6800     487
149.7600     449
149.8400     435
149.9200     531
150.0000     428
150.0800     424
150.1600     474
150.2400     503
150.3200     481
150.4000     489
150.4800     510
150.5600     459
150.6400     511
150.7200     538
150.8000     556
150.8800     559
150.9600     504
151.0400     572
151.1200     500
151.2000     540
151.2800     586
151.3600     585
151.4400     613
151.5200     549
151.6000     611
151.6800     815
151.7600     719
151.8400     654
151.9200     729
152.0000     815
152.0800     668
152.1600     691
152.2400     864
152.3200     919
152.4000     914
152.4800    1001
152.5600     991
152.6400    1118
152.7200    1104
152.8000    1144
152.8800    1292
152.9600    1157
153.0400    1320
153.1200    1345
153.2000    1454
153.2800    1469
153.3600    1571
153.4400    1672
153.5200    1799
153.6000    1964
153.6800    1806
153.7600    1855
153.8400    2011
153.9200    1998
154.0000    2005
154.0800    2052
154.1600    2419
154.2400    2216
154.3200    2303
154.4000    2155
154.4800    2166
154.5600    2205
154.6400    2244
154.7200    2118
154.8000    2159
154.8800    2264
154.9600    2365
155.0400    2143
155.1200    2140
155.2000    1942
155.2800    1909
155.3600    2019
155.4400    1759
155.5200    1829
155.6000    1772
155.6800    1633
155.7600    1694
155.8400    1499
155.9200    1465
156.0000    1680
156.0800    1340
156.1600    1405
156.2400    1274
156.3200    1215
156.4000    1098
156.4800    1192
156.5600    1112
156.6400    1099
156.7200     951
156.8000     895
156.8800     993
156.9600     990
157.0400     934
157.1200     875
157.2000     821
157.2800     782
157.3600     714
157.4400     861
157.5200     650
157.6000     744
157.6800     831
157.7600     753
157.8400     648
157.9200     782
158.0000     687
158.0800     665
158.1600     731
158.2400     558
158.3200     604
158.4000     557
158.4800     625
158.5600     599
158.6400     672
158.7200     619
158.8000     571
158.8800     638
158.9600     610
159.0400     508
159.1200     585
159.2000     488
159.2800     571
159.3600     487
159.4400     461
159.5200     489
159.6000     472
159.6800     591
159.7600     521
159.8400     542
159.9200     476
160.0000     565
160.0800     523
160.1600     453
160.2400     469
160.3200     441
160.4000     526
160.4800     561
160.5600     525
160.6400     429
160.7200     507
160.8000     394
160.8800     510
160.9600     371
161.0400     459
161.1200     441
161.2000     432
161.2800     354
161.3600     397
161.4400     412
161.5200     461
161.6000     484
161.6800     373
161.7600     444
161.8400     469
161.9200     444
161.9800     450