File: XRD_Tool/XRD_Tool/bin/Debug/LDA_sample_name_56789_Psi-0_20180622-213735.txt
137.2000     233
137.2800     232
137.3600     171
137.4400     311
137.5200     336
137.6000     281
137.6800     196
137.7600     150
137.8400     266
137.9200     314
138.0000     191
138.0800     199
138.1600     271
138.2400     233
138.3200     278
138.4000     241
138.4800     271
138.5600     146
138.6400     263
138.7200     298
138.8000     273
138.8800     201
138.9600     328
139.0400     262
139.1200     227
139.2000     321
139.2800     221
139.3600     271
139.4400     322
139.5200     270
139.6000     231
139.6800     344
139.7600     267
139.8400     390
139.9200     279
140.0000     266
140.0800     296
140.1600     269
140.2400     323
140.3200     243
140.4000     309
140.4800     300
140.5600     226
140.6400     311
140.7200     258
140.8000     200
140.8800     281
140.9600     181
141.0400     214
141.1200     296
141.2000     361
141.2800     234
141.3600     218
141.4400     338
141.5200     252
141.6000     399
141.6800     237
141.7600     334
141.8400     253
141.9200     203
142.0000     383
142.0800     291
142.1600     355
142.2400     326
142.3200     280
142.4000     267
142.4800     305
142.5600     322
142.6400     390
142.7200     379
142.8000     330
142.8800     310
142.9600     337
143.0400     412
143.1200     318
143.2000     339
143.2800     396
143.3600     364
143.4400     335
143.5200     300
143.6000     366
143.6800     343
143.7600     291
143.8400     317
143.9200     274
144.0000     321
144.0800     364
144.1600     322
144.2400     310
144.3200     351
144.4000     329
144.4800     321
144.5600     415
144.6400     357
144.7200     282
144.8000     375
144.8800     228
144.9600     298
145.0400     264
145.1200     334
145.2000     349
145.2800     281
145.3600     418
145.4400     342
145.5200     349
145.6000     371
145.6800     379
145.7600     294
145.8400     408
145.9200     427
146.0000     338
146.0800     281
146.1600     230
146.2400     335
146.3200     311
146.4000     329
146.4800     316
146.5600     386
146.6400     378
146.7200     393
146.8000     438
146.8800     277
146.9600     384
147.0400     403
147.1200     460
147.2000     482
147.2800     373
147.3600     450
147.4400     436
147.5200     430
147.6000     358
147.6800     482
147.7600     331
147.8400     455
147.9200     417
148.0000     417
148.0800     372
148.1600     492
148.2400     500
148.3200     385
148.4000     468
148.4800     429
148.5600     441
148.6400     464
148.7200     453
148.8000     487
148.8800     493
148.9600     401
149.0400     487
149.1200     383
149.2000     490
149.2800     504
149.3600     526
149.4400     550
149.5200     546
149.6000     592
149.6800     576
149.7600     568
149.8400     539
149.9200     541
150.0000     607
150.0800     634
150.1600     492
150.2400     632
150.3200     635
150.4000     716
150.4800     686
150.5600     673
150.6400     822
150.7200     702
150.8000     815
150.8800     853
150.9600     839
151.0400     938
151.1200     855
151.2000    1009
151.2800     968
151.3600    1067
151.4400     989
151.5200    1103
151.6000    1188
151.6800    1257
151.7600    1498
151.8400    1587
151.9200    1653
152.0000    1791
152.0800    1839
152.1600    1873
152.2400    2018
152.3200    1952
152.4000    2145
152.4800    2337
152.5600    2146
152.6400    2396
152.7200    2479
152.8000    2700
152.8800    2648
152.9600    2726
153.0400    2748
153.1200    2810
153.2000    2564
153.2800    2463
153.3600    2886
153.4400    2584
153.5200    2783
153.6000    2738
153.6800    2548
153.7600    2561
153.8400    2419
153.9200    2514
154.0000    2115
154.0800    2188
154.1600    2331
154.2400    2191
154.3200    1990
154.4000    1781
154.4800    1774
154.5600    1916
154.6400    1697
154.7200    1698
154.8000    1449
154.8800    1533
154.9600    1541
155.0400    1430
155.1200    1309
155.2000    1301
155.2800    1254
155.3600    1278
155.4400    1075
155.5200    1104
155.6000     985
155.6800     958
155.7600     965
155.8400     974
155.9200     905
156.0000     753
156.0800     745
156.1600     643
156.2400     808
156.3200     682
156.4000     608
156.4800     817
156.5600     592
156.6400     651
156.7200     618
156.8000     583
156.8800     793
156.9600     573
157.0400     634
157.1200     697
157.2000     539
157.2800     554
157.3600     562
157.4400     530
157.5200     529
157.6000     489
157.6800     546
157.7600     519
157.8400     540
157.9200     486
158.0000     559
158.0800     458
158.1600     505
158.2400     384
158.3200     368
158.4000     412
158.4800     446
158.5600     382
158.6400     418
158.7200     386
158.8000     397
158.8800     425
158.9600     305
159.0400     409
159.1200     335
159.2000     379
159.2800     402
159.3600     472
159.4400     332
159.5200     405
159.6000     457
159.6800     268
159.7600     469
159.8400     371
159.9200     415
160.0000     319
160.0800     256
160.1600     263
160.2400     387
160.3200     239
160.4000     316
160.4800     339
160.5600     337
160.6400     295
160.7200     320
160.8000     267
160.8800     228
160.9600     292
161.0400     320
161.1200     358
161.1800     356