File: XRD_Tool/XRD_Tool/bin/Debug/LDA_sample_name_56789_Psi-0_20180603-111606.txt
137.2000     220
137.3200     248
137.4400     243
137.5600     252
137.6800     249
137.8000     265
137.9200     237
138.0400     292
138.1600     276
138.2800     251
138.4000     280
138.5200     256
138.6400     240
138.7600     287
138.8800     273
139.0000     273
139.1200     273
139.2400     231
139.3600     233
139.4800     225
139.6000     259
139.7200     268
139.8400     248
139.9600     295
140.0800     258
140.2000     284
140.3200     246
140.4400     275
140.5600     295
140.6800     231
140.8000     253
140.9200     260
141.0400     263
141.1600     280
141.2800     277
141.4000     263
141.5200     265
141.6400     245
141.7600     264
141.8800     259
142.0000     299
142.1200     276
142.2400     297
142.3600     261
142.4800     254
142.6000     279
142.7200     276
142.8400     240
142.9600     249
143.0800     268
143.2000     267
143.3200     274
143.4400     234
143.5600     267
143.6800     284
143.8000     268
143.9200     269
144.0400     286
144.1600     301
144.2800     263
144.4000     273
144.5200     244
144.6400     307
144.7600     247
144.8800     278
145.0000     291
145.1200     262
145.2400     262
145.3600     261
145.4800     283
145.6000     246
145.7200     277
145.8400     255
145.9600     252
146.0800     289
146.2000     289
146.3200     271
146.4400     265
146.5600     250
146.6800     285
146.8000     277
146.9200     282
147.0400     296
147.1600     283
147.2800     277
147.4000     256
147.5200     286
147.6400     291
147.7600     291
147.8800     294
148.0000     278
148.1200     273
148.2400     319
148.3600     300
148.4800     284
148.6000     260
148.7200     307
148.8400     305
148.9600     302
149.0800     294
149.2000     279
149.3200     319
149.4400     308
149.5600     290
149.6800     295
149.8000     311
149.9200     294
150.0400     305
150.1600     303
150.2800     301
150.4000     295
150.5200     313
150.6400     324
150.7600     323
150.8800     343
151.0000     322
151.1200     306
151.2400     318
151.3600     386
151.4800     359
151.6000     312
151.7200     355
151.8400     378
151.9600     359
152.0800     408
152.2000     383
152.3200     472
152.4400     382
152.5600     443
152.6800     467
152.8000     465
152.9200     492
153.0400     560
153.1600     517
153.2800     597
153.4000     639
153.5200     611
153.6400     670
153.7600     682
153.8800     722
154.0000     712
154.1200     734
154.2400     766
154.3600     773
154.4800     771
154.6000     774
154.7200     743
154.8400     729
154.9600     772
155.0800     753
155.2000     678
155.3200     674
155.4400     673
155.5600     630
155.6800     606
155.8000     634
155.9200     573
156.0400     563
156.1600     558
156.2800     501
156.4000     467
156.5200     528
156.6400     478
156.7600     431
156.8800     403
157.0000     416
157.1200     377
157.2400     394
157.3600     388
157.4800     380
157.6000     358
157.7200     414
157.8400     334
157.9600     385
158.0800     364
158.2000     345
158.3200     360
158.4400     320
158.5600     335
158.6800     295
158.8000     326
158.9200     322
159.0400     340
159.1600     316
159.2800     312
159.4000     338
159.5200     323
159.6400     301
159.7600     311
159.8800     299
160.0000     312
160.1200     266
160.2400     275
160.3600     316
160.4800     264
160.6000     266
160.7200     319
160.8400     283
160.9600     286
161.0800     303
161.2000     287
161.3200     277
161.4400     278
161.5600     255
161.6800     271
161.8000     278
161.9200     274
162.0400     289
162.1600     253
162.2800     261
162.4000     266
162.5200     309
162.6400     281
162.7600     260