File: XRD_Tool/XRD_Tool/bin/Debug/LDA_sample_name_56789_Psi-0_20180622-210504.txt
127.2000      22
127.2800      22
127.3600      -1
127.4400      11
127.5200      12
127.6000      31
127.6800      21
127.7600      18
127.8400      17
127.9200      20
128.0000      18
128.0800      15
128.1600      27
128.2400      50
128.3200      21
128.4000      12
128.4800      25
128.5600      25
128.6400      22
128.7200      37
128.8000      10
128.8800      21
128.9600      24
129.0400       4
129.1200       2
129.2000      34
129.2800       2
129.3600      19
129.4400      32
129.5200      18
129.6000      41
129.6800      29
129.7600       1
129.8400       9
129.9200      29
130.0000      17
130.0800      27
130.1600      36
130.2400      31
130.3200      20
130.4000      32
130.4800      34
130.5600      50
130.6400      12
130.7200      37
130.8000      11
130.8800      11
130.9600      18
131.0400      50
131.1200      17
131.2000      16
131.2800      28
131.3600      25
131.4400       4
131.5200      29
131.6000      24
131.6800      14
131.7600      26
131.8400      10
131.9200       4
132.0000      37
132.0800      29
132.1600      14
132.2400      31
132.3200      17
132.4000      30
132.4800      28
132.5600      29
132.6400       6
132.7200      34
132.8000      33
132.8800      47
132.9600      12
133.0400      10
133.1200      29
133.2000      36
133.2800      13
133.3600      24
133.4400      15
133.5200      26
133.6000      41
133.6800      30
133.7600       6
133.8400      21
133.9200      25
134.0000      19
134.0800      22
134.1600       0
134.2400      38
134.3200      15
134.4000      31
134.4800      21
134.5600      41
134.6400      22
134.7200      25
134.8000      45
134.8800      59
134.9600      13
135.0400      39
135.1200      15
135.2000      12
135.2800      27
135.3600      13
135.4400      21
135.5200      14
135.6000      26
135.6800      43
135.7600      28
135.8400       7
135.9200      38
136.0000      23
136.0800      34
136.1600      14
136.2400      12
136.3200      36
136.4000      48
136.4800      23
136.5600      20
136.6400      32
136.7200      47
136.8000      35
136.8800      59
136.9600      28
137.0400      19
137.1200      23
137.2000      25
137.2800      39
137.3600      16
137.4400      17
137.5200      45
137.6000      20
137.6800      38
137.7600      30
137.8400      34
137.9200      14
138.0000      39
138.0800      27
138.1600      40
138.2400      31
138.3200      29
138.4000      23
138.4800      20
138.5600      31
138.6400      37
138.7200       7
138.8000      45
138.8800      32
138.9600      32
139.0400      30
139.1200      39
139.2000      20
139.2800      29
139.3600      21
139.4400      27
139.5200      22
139.6000      19
139.6800      41
139.7600      28
139.8400      33
139.9200      44
140.0000      13
140.0800      25
140.1600      14
140.2400      25
140.3200       9
140.4000      14
140.4800      37
140.5600      12
140.6400      32
140.7200      19
140.8000      27
140.8800      37
140.9600      29
141.0400      20
141.1200      19
141.2000      43
141.2800      22
141.3600      16
141.4400      26
141.5200      24
141.6000      40
141.6800      21
141.7600      35
141.8400      32
141.9200      20
142.0000      25
142.0800      22
142.1600      16
142.2400      21
142.3200      57
142.4000      14
142.4800      50
142.5600      29
142.6400      28
142.7200      55
142.8000      17
142.8800      34
142.9600      13
143.0400      53
143.1200      43
143.2000      26
143.2800      29
143.3600      14
143.4400      24
143.5200      23
143.6000      40
143.6800      20
143.7600      15
143.8400       5
143.9200      31
144.0000       3
144.0800      28
144.1600      21
144.2400      12
144.3200      14
144.4000      25
144.4800      21
144.5600      28
144.6400       6
144.7200      31
144.8000      12
144.8800      11
144.9600      17
145.0400      25
145.1200      29
145.2000      47
145.2800       2
145.3600       5
145.4400      17
145.5200      26
145.6000      16
145.6800      25
145.7600      14
145.8400      37
145.9200      39
146.0000      15
146.0800      22
146.1600       7
146.2400      39
146.3200      44
146.4000      32
146.4800      34
146.5600      17
146.6400      32
146.7200      14
146.8000      24
146.8800      35
146.9600      16
147.0400      29
147.1200      24
147.2000      26
147.2800      36
147.3600      37
147.4400      20
147.5200      33
147.6000      16
147.6800      17
147.7600      21
147.8400       4
147.9200      15
148.0000      47
148.0800      22
148.1600      14
148.2400      16
148.3200      25
148.4000      29
148.4800      63
148.5600      27
148.6400      25
148.7200      42
148.8000      23
148.8800      37
148.9600      38
149.0400      18
149.1200      14
149.2000      30
149.2800      23
149.3600      42
149.4400      37
149.5200      43
149.6000      23
149.6800      33
149.7600      31
149.8400      14
149.9200      55
150.0000      17
150.0800      34
150.1600      37
150.2400      28
150.3200      38
150.4000      26
150.4800      33
150.5600      33
150.6400      35
150.7200      35
150.8000      41
150.8800      37
150.9600      37
151.0400      53
151.1200      46
151.1800      24