File: XRD_Tool/XRD_Tool/bin/Debug/LDA_sample_name_56789_Psi-0_20180603-112230.txt
137.2000     242
137.3200     247
137.4400     271
137.5600     280
137.6800     239
137.8000     285
137.9200     244
138.0400     282
138.1600     220
138.2800     255
138.4000     237
138.5200     277
138.6400     248
138.7600     246
138.8800     280
139.0000     238
139.1200     302
139.2400     290
139.3600     266
139.4800     279
139.6000     250
139.7200     250
139.8400     241
139.9600     236
140.0800     248
140.2000     264
140.3200     262
140.4400     256
140.5600     260
140.6800     255
140.8000     278
140.9200     273
141.0400     265
141.1600     252
141.2800     264
141.4000     253
141.5200     267
141.6400     238
141.7600     238
141.8800     268
142.0000     268
142.1200     247
142.2400     268
142.3600     287
142.4800     301
142.6000     260
142.7200     249
142.8400     258
142.9600     249
143.0800     268
143.2000     256
143.3200     247
143.4400     244
143.5600     271
143.6800     252
143.8000     289
143.9200     247
144.0400     263
144.1600     272
144.2800     277
144.4000     270
144.5200     269
144.6400     263
144.7600     274
144.8800     266
145.0000     291
145.1200     242
145.2400     275
145.3600     278
145.4800     263
145.6000     319
145.7200     268
145.8400     275
145.9600     268
146.0800     267
146.2000     284
146.3200     280
146.4400     259
146.5600     288
146.6800     263
146.8000     287
146.9200     281
147.0400     272
147.1600     254
147.2800     275
147.4000     266
147.5200     296
147.6400     294
147.7600     305
147.8800     286
148.0000     290
148.1200     286
148.2400     265
148.3600     329
148.4800     324
148.6000     274
148.7200     289
148.8400     281
148.9600     277
149.0800     301
149.2000     280
149.3200     300
149.4400     291
149.5600     299
149.6800     311
149.8000     278
149.9200     326
150.0400     336
150.1600     312
150.2800     303
150.4000     292
150.5200     312
150.6400     318
150.7600     293
150.8800     325
151.0000     304
151.1200     333
151.2400     352
151.3600     349
151.4800     349
151.6000     332
151.7200     327
151.8400     381
151.9600     337
152.0800     358
152.2000     354
152.3200     381
152.4400     419
152.5600     453
152.6800     474
152.8000     497
152.9200     521
153.0400     553
153.1600     528
153.2800     530
153.4000     629
153.5200     571
153.6400     653
153.7600     731
153.8800     694
154.0000     654
154.1200     752
154.2400     718
154.3600     738
154.4800     712
154.6000     814
154.7200     742
154.8400     740
154.9600     758
155.0800     741
155.2000     667
155.3200     715
155.4400     627
155.5600     606
155.6800     548
155.8000     607
155.9200     647
156.0400     604
156.1600     529
156.2800     539
156.4000     458
156.5200     453
156.6400     443
156.7600     472
156.8800     398
157.0000     430
157.1200     433
157.2400     410
157.3600     397
157.4800     399
157.6000     381
157.7200     375
157.8400     375
157.9600     322
158.0800     381
158.2000     355
158.3200     316
158.4400     326
158.5600     342
158.6800     332
158.8000     309
158.9200     328
159.0400     304
159.1600     312
159.2800     318
159.4000     290
159.5200     319
159.6400     266
159.7600     290
159.8800     314
160.0000     289
160.1200     300
160.2400     316
160.3600     249
160.4800     250
160.6000     278
160.7200     270
160.8400     303
160.9600     266
161.0800     337
161.2000     287
161.3200     269
161.4400     261
161.5600     291
161.6800     274
161.8000     275
161.9200     268
162.0400     255
162.1600     295
162.2800     240
162.4000     248
162.5200     298
162.6400     250
162.7600     275