File: XRD_Tool/XRD_Tool/bin/Debug/LDA_sample_name_56789_Psi-35_20180622-235722.txt
138.0000     209
138.0800     322
138.1600     210
138.2400     303
138.3200     139
138.4000     168
138.4800     168
138.5600     276
138.6400     212
138.7200     200
138.8000     158
138.8800     203
138.9600     129
139.0400     239
139.1200     198
139.2000     240
139.2800     260
139.3600     279
139.4400     174
139.5200     254
139.6000     193
139.6800     307
139.7600     194
139.8400     220
139.9200     123
140.0000     227
140.0800     291
140.1600     247
140.2400     238
140.3200     234
140.4000     202
140.4800     166
140.5600     165
140.6400     283
140.7200     174
140.8000     223
140.8800     275
140.9600     297
141.0400     333
141.1200     192
141.2000     253
141.2800     273
141.3600     205
141.4400     158
141.5200     192
141.6000     229
141.6800     303
141.7600     256
141.8400     202
141.9200     156
142.0000     263
142.0800     295
142.1600     234
142.2400     279
142.3200     285
142.4000     304
142.4800     239
142.5600     280
142.6400     225
142.7200     267
142.8000     219
142.8800     226
142.9600     326
143.0400     350
143.1200     263
143.2000     282
143.2800     279
143.3600     254
143.4400     259
143.5200     238
143.6000     201
143.6800     264
143.7600     355
143.8400     265
143.9200     251
144.0000     327
144.0800     320
144.1600     298
144.2400     322
144.3200     274
144.4000     294
144.4800     231
144.5600     288
144.6400     378
144.7200     271
144.8000     279
144.8800     320
144.9600     346
145.0400     241
145.1200     262
145.2000     355
145.2800     249
145.3600     282
145.4400     266
145.5200     340
145.6000     316
145.6800     272
145.7600     180
145.8400     235
145.9200     252
146.0000     284
146.0800     239
146.1600     182
146.2400     224
146.3200     223
146.4000     290
146.4800     214
146.5600     281
146.6400     324
146.7200     267
146.8000     294
146.8800     261
146.9600     273
147.0400     334
147.1200     159
147.2000     313
147.2800     184
147.3600     341
147.4400     310
147.5200     237
147.6000     378
147.6800     383
147.7600     373
147.8400     341
147.9200     425
148.0000     439
148.0800     341
148.1600     328
148.2400     416
148.3200     342
148.4000     310
148.4800     432
148.5600     369
148.6400     384
148.7200     350
148.8000     330
148.8800     371
148.9600     369
149.0400     396
149.1200     336
149.2000     413
149.2800     389
149.3600     303
149.4400     357
149.5200     417
149.6000     334
149.6800     366
149.7600     470
149.8400     398
149.9200     376
150.0000     371
150.0800     399
150.1600     348
150.2400     455
150.3200     414
150.4000     430
150.4800     491
150.5600     403
150.6400     489
150.7200     429
150.8000     480
150.8800     517
150.9600     478
151.0400     478
151.1200     486
151.2000     604
151.2800     526
151.3600     568
151.4400     626
151.5200     378
151.6000     675
151.6800     652
151.7600     654
151.8400     690
151.9200     669
152.0000     676
152.0800     730
152.1600     847
152.2400     790
152.3200     880
152.4000     835
152.4800     910
152.5600     955
152.6400    1114
152.7200    1092
152.8000    1159
152.8800    1247
152.9600    1394
153.0400    1377
153.1200    1430
153.2000    1563
153.2800    1533
153.3600    1594
153.4400    1703
153.5200    1781
153.6000    1737
153.6800    1978
153.7600    1827
153.8400    2039
153.9200    1924
154.0000    2019
154.0800    1985
154.1600    2364
154.2400    2198
154.3200    2248
154.4000    2474
154.4800    2456
154.5600    2379
154.6400    2361
154.7200    2125
154.8000    2188
154.8800    2107
154.9600    2280
155.0400    2408
155.1200    2126
155.2000    2127
155.2800    2205
155.3600    2261
155.4400    2010
155.5200    2068
155.6000    1721
155.6800    1702
155.7600    1761
155.8400    1725
155.9200    1465
156.0000    1418
156.0800    1505
156.1600    1324
156.2400    1314
156.3200    1292
156.4000    1192
156.4800    1291
156.5600    1144
156.6400    1114
156.7200    1097
156.8000     996
156.8800     712
156.9600     835
157.0400     836
157.1200     758
157.2000     797
157.2800     953
157.3600     777
157.4400     741
157.5200     714
157.6000     661
157.6800     600
157.7600     721
157.8400     691
157.9200     648
158.0000     625
158.0800     483
158.1600     543
158.2400     502
158.3200     556
158.4000     485
158.4800     536
158.5600     613
158.6400     562
158.7200     504
158.8000     378
158.8800     520
158.9600     460
159.0400     494
159.1200     412
159.2000     351
159.2800     472
159.3600     440
159.4400     451
159.5200     311
159.6000     352
159.6800     307
159.7600     306
159.8400     460
159.9200     333
160.0000     289
160.0800     407
160.1600     494
160.2400     322
160.3200     356
160.4000     312
160.4800     282
160.5600     299
160.6400     302
160.7200     337
160.8000     293
160.8800     327
160.9600     327
161.0400     333
161.1200     322
161.2000     317
161.2800     233
161.3600     305
161.4400     256
161.5200     283
161.6000     298
161.6800     208
161.7600     276
161.8400     265
161.9200     262
161.9800     273