File: XRD_Tool/XRD_Tool/bin/Debug/LDA_sample_name_56789_Psi-0_20180603-115751.txt
137.2000     223
137.3200     257
137.4400     250
137.5600     288
137.6800     244
137.8000     267
137.9200     263
138.0400     254
138.1600     270
138.2800     286
138.4000     291
138.5200     253
138.6400     253
138.7600     279
138.8800     218
139.0000     237
139.1200     246
139.2400     253
139.3600     239
139.4800     251
139.6000     254
139.7200     244
139.8400     245
139.9600     282
140.0800     270
140.2000     263
140.3200     268
140.4400     258
140.5600     260
140.6800     266
140.8000     250
140.9200     245
141.0400     242
141.1600     253
141.2800     225
141.4000     234
141.5200     241
141.6400     234
141.7600     262
141.8800     243
142.0000     262
142.1200     272
142.2400     268
142.3600     265
142.4800     281
142.6000     280
142.7200     241
142.8400     239
142.9600     277
143.0800     286
143.2000     260
143.3200     252
143.4400     276
143.5600     243
143.6800     250
143.8000     255
143.9200     290
144.0400     249
144.1600     269
144.2800     303
144.4000     274
144.5200     252
144.6400     264
144.7600     274
144.8800     259
145.0000     235
145.1200     239
145.2400     277
145.3600     298
145.4800     256
145.6000     281
145.7200     245
145.8400     265
145.9600     264
146.0800     267
146.2000     258
146.3200     269
146.4400     272
146.5600     272
146.6800     246
146.8000     268
146.9200     296
147.0400     259
147.1600     258
147.2800     294
147.4000     281
147.5200     288
147.6400     289
147.7600     280
147.8800     260
148.0000     317
148.1200     276
148.2400     246
148.3600     313
148.4800     290
148.6000     253
148.7200     306
148.8400     266
148.9600     312
149.0800     305
149.2000     327
149.3200     303
149.4400     275
149.5600     303
149.6800     289
149.8000     300
149.9200     264
150.0400     319
150.1600     293
150.2800     312
150.4000     314
150.5200     307
150.6400     309
150.7600     312
150.8800     311
151.0000     313
151.1200     357
151.2400     329
151.3600     365
151.4800     331
151.6000     365
151.7200     333
151.8400     350
151.9600     365
152.0800     367
152.2000     404
152.3200     377
152.4400     417
152.5600     433
152.6800     486
152.8000     488
152.9200     491
153.0400     519
153.1600     535
153.2800     613
153.4000     651
153.5200     611
153.6400     624
153.7600     733
153.8800     662
154.0000     675
154.1200     708
154.2400     779
154.3600     786
154.4800     741
154.6000     712
154.7200     775
154.8400     791
154.9600     808
155.0800     747
155.2000     657
155.3200     657
155.4400     637
155.5600     653
155.6800     591
155.8000     647
155.9200     552
156.0400     574
156.1600     538
156.2800     535
156.4000     472
156.5200     491
156.6400     431
156.7600     448
156.8800     431
157.0000     435
157.1200     396
157.2400     374
157.3600     365
157.4800     411
157.6000     368
157.7200     340
157.8400     379
157.9600     347
158.0800     336
158.2000     331
158.3200     323
158.4400     350
158.5600     304
158.6800     350
158.8000     303
158.9200     296
159.0400     339
159.1600     283
159.2800     299
159.4000     304
159.5200     292
159.6400     301
159.7600     289
159.8800     296
160.0000     315
160.1200     287
160.2400     290
160.3600     268
160.4800     265
160.6000     326
160.7200     294
160.8400     256
160.9600     292
161.0800     283
161.2000     282
161.3200     304
161.4400     271
161.5600     306
161.6800     267
161.8000     284
161.9200     254
162.0400     237
162.1600     294
162.2800     262
162.4000     272
162.5200     282
162.6400     283
162.7600     259