File: XRD_Tool/XRD_Tool/bin/Debug/LDA_sample_name_56789_Psi-24_20180623-125518.txt
138.0000     100
138.0800     170
138.1600     145
138.2400     161
138.3200     224
138.4000     105
138.4800     215
138.5600     223
138.6400     184
138.7200     235
138.8000     168
138.8800     150
138.9600     220
139.0400     202
139.1200     143
139.2000     130
139.2800     142
139.3600     196
139.4400     170
139.5200     138
139.6000     216
139.6800     177
139.7600     141
139.8400     192
139.9200     208
140.0000     143
140.0800     265
140.1600     156
140.2400     222
140.3200     117
140.4000     233
140.4800     213
140.5600     263
140.6400     160
140.7200     288
140.8000     260
140.8800     241
140.9600     249
141.0400     185
141.1200     146
141.2000     217
141.2800     205
141.3600     228
141.4400     121
141.5200     186
141.6000     157
141.6800     142
141.7600     233
141.8400     196
141.9200     231
142.0000     217
142.0800     290
142.1600     207
142.2400     174
142.3200     258
142.4000     199
142.4800     274
142.5600     280
142.6400     289
142.7200     293
142.8000     233
142.8800     223
142.9600     314
143.0400     367
143.1200     306
143.2000     306
143.2800     293
143.3600     264
143.4400     290
143.5200     288
143.6000     225
143.6800     257
143.7600     262
143.8400     295
143.9200     294
144.0000     308
144.0800     246
144.1600     332
144.2400     234
144.3200     252
144.4000     286
144.4800     288
144.5600     357
144.6400     322
144.7200     205
144.8000     289
144.8800     311
144.9600     330
145.0400     293
145.1200     307
145.2000     283
145.2800     226
145.3600     381
145.4400     350
145.5200     295
145.6000     350
145.6800     295
145.7600     250
145.8400     360
145.9200     344
146.0000     183
146.0800     427
146.1600     319
146.2400     269
146.3200     346
146.4000     267
146.4800     309
146.5600     299
146.6400     309
146.7200     305
146.8000     291
146.8800     288
146.9600     331
147.0400     312
147.1200     338
147.2000     292
147.2800     269
147.3600     457
147.4400     282
147.5200     327
147.6000     378
147.6800     385
147.7600     376
147.8400     344
147.9200     411
148.0000     514
148.0800     386
148.1600     349
148.2400     397
148.3200     407
148.4000     349
148.4800     449
148.5600     420
148.6400     348
148.7200     413
148.8000     418
148.8800     390
148.9600     310
149.0400     337
149.1200     340
149.2000     253
149.2800     424
149.3600     461
149.4400     335
149.5200     360
149.6000     367
149.6800     381
149.7600     330
149.8400     365
149.9200     580
150.0000     468
150.0800     452
150.1600     425
150.2400     449
150.3200     452
150.4000     448
150.4800     378
150.5600     453
150.6400     640
150.7200     497
150.8000     519
150.8800     522
150.9600     422
151.0400     591
151.1200     538
151.2000     704
151.2800     577
151.3600     565
151.4400     663
151.5200     679
151.6000     625
151.6800     640
151.7600     600
151.8400     668
151.9200     740
152.0000     802
152.0800     737
152.1600     755
152.2400     884
152.3200     866
152.4000    1008
152.4800     958
152.5600    1218
152.6400    1233
152.7200    1066
152.8000    1230
152.8800    1366
152.9600    1368
153.0400    1346
153.1200    1372
153.2000    1494
153.2800    1593
153.3600    1753
153.4400    1588
153.5200    1731
153.6000    2151
153.6800    1959
153.7600    2280
153.8400    2156
153.9200    2177
154.0000    2013
154.0800    2181
154.1600    2239
154.2400    2305
154.3200    2356
154.4000    2201
154.4800    2402
154.5600    2273
154.6400    2263
154.7200    2025
154.8000    2149
154.8800    2120
154.9600    2196
155.0400    2099
155.1200    2085
155.2000    1920
155.2800    1812
155.3600    1851
155.4400    1654
155.5200    1606
155.6000    1477
155.6800    1494
155.7600    1548
155.8400    1519
155.9200    1436
156.0000    1304
156.0800    1316
156.1600    1304
156.2400    1065
156.3200    1092
156.4000    1021
156.4800    1015
156.5600     952
156.6400     953
156.7200     890
156.8000     871
156.8800     842
156.9600     782
157.0400     832
157.1200     823
157.2000     664
157.2800     705
157.3600     705
157.4400     571
157.5200     621
157.6000     638
157.6800     719
157.7600     725
157.8400     653
157.9200     715
158.0000     574
158.0800     665
158.1600     593
158.2400     514
158.3200     629
158.4000     557
158.4800     572
158.5600     495
158.6400     421
158.7200     511
158.8000     482
158.8800     539
158.9600     485
159.0400     496
159.1200     460
159.2000     455
159.2800     478
159.3600     477
159.4400     452
159.5200     434
159.6000     397
159.6800     408
159.7600     427
159.8400     542
159.9200     496
160.0000     397
160.0800     489
160.1600     353
160.2400     418
160.3200     458
160.4000     423
160.4800     462
160.5600     421
160.6400     402
160.7200     381
160.8000     405
160.8800     347
160.9600     365
161.0400     321
161.1200     378
161.2000     413
161.2800     327
161.3600     465
161.4400     428
161.5200     388
161.6000     332
161.6800     360
161.7600     335
161.8400     351
161.9200     315
161.9800     356