File: XRD_Tool/XRD_Tool/bin/Debug/LDA_sample_name_56789_Psi-24_20180623-123825.txt
138.0000     141
138.0800     185
138.1600     158
138.2400     166
138.3200     148
138.4000     220
138.4800     171
138.5600     104
138.6400     193
138.7200     253
138.8000     174
138.8800     169
138.9600     159
139.0400     165
139.1200     224
139.2000     204
139.2800     179
139.3600     216
139.4400     270
139.5200     164
139.6000     138
139.6800     116
139.7600     206
139.8400     200
139.9200     188
140.0000     218
140.0800     226
140.1600     201
140.2400     195
140.3200     258
140.4000     194
140.4800     232
140.5600     248
140.6400     161
140.7200     271
140.8000      97
140.8800     180
140.9600     192
141.0400     147
141.1200     238
141.2000     232
141.2800     155
141.3600     200
141.4400     271
141.5200     146
141.6000     250
141.6800     268
141.7600     204
141.8400     151
141.9200     223
142.0000     191
142.0800     264
142.1600     305
142.2400     268
142.3200     197
142.4000     313
142.4800     371
142.5600     269
142.6400     395
142.7200     253
142.8000     248
142.8800     278
142.9600     217
143.0400     201
143.1200     226
143.2000     192
143.2800     233
143.3600     173
143.4400     231
143.5200     274
143.6000     313
143.6800     339
143.7600     356
143.8400     203
143.9200     174
144.0000     281
144.0800     229
144.1600     329
144.2400     270
144.3200     244
144.4000     257
144.4800     328
144.5600     223
144.6400     262
144.7200     200
144.8000     297
144.8800     250
144.9600     285
145.0400     272
145.1200     336
145.2000     274
145.2800     237
145.3600     222
145.4400     314
145.5200     236
145.6000     253
145.6800     369
145.7600     316
145.8400     286
145.9200     286
146.0000     383
146.0800     243
146.1600     247
146.2400     339
146.3200     322
146.4000     258
146.4800     267
146.5600     358
146.6400     337
146.7200     328
146.8000     285
146.8800     291
146.9600     257
147.0400     361
147.1200     213
147.2000     276
147.2800     369
147.3600     328
147.4400     258
147.5200     325
147.6000     345
147.6800     344
147.7600     311
147.8400     412
147.9200     350
148.0000     338
148.0800     324
148.1600     383
148.2400     334
148.3200     410
148.4000     328
148.4800     424
148.5600     348
148.6400     435
148.7200     451
148.8000     345
148.8800     288
148.9600     389
149.0400     353
149.1200     343
149.2000     409
149.2800     396
149.3600     314
149.4400     410
149.5200     423
149.6000     291
149.6800     304
149.7600     406
149.8400     507
149.9200     496
150.0000     451
150.0800     428
150.1600     429
150.2400     519
150.3200     434
150.4000     437
150.4800     429
150.5600     399
150.6400     443
150.7200     376
150.8000     419
150.8800     540
150.9600     523
151.0400     513
151.1200     567
151.2000     561
151.2800     626
151.3600     618
151.4400     590
151.5200     550
151.6000     660
151.6800     634
151.7600     609
151.8400     629
151.9200     844
152.0000     763
152.0800     751
152.1600     811
152.2400     828
152.3200     962
152.4000     951
152.4800     890
152.5600     942
152.6400    1062
152.7200    1146
152.8000    1197
152.8800    1260
152.9600    1290
153.0400    1351
153.1200    1441
153.2000    1709
153.2800    1690
153.3600    1817
153.4400    1801
153.5200    1833
153.6000    2003
153.6800    1998
153.7600    2176
153.8400    2074
153.9200    2210
154.0000    2119
154.0800    2232
154.1600    2187
154.2400    2358
154.3200    2286
154.4000    2277
154.4800    2290
154.5600    2335
154.6400    2109
154.7200    2205
154.8000    2021
154.8800    2159
154.9600    2176
155.0400    2256
155.1200    1883
155.2000    1956
155.2800    1768
155.3600    1681
155.4400    1660
155.5200    1831
155.6000    1478
155.6800    1588
155.7600    1405
155.8400    1449
155.9200    1236
156.0000    1215
156.0800    1298
156.1600    1098
156.2400    1275
156.3200    1026
156.4000     966
156.4800    1025
156.5600     917
156.6400     941
156.7200     940
156.8000     899
156.8800     807
156.9600     817
157.0400     841
157.1200     786
157.2000     730
157.2800     710
157.3600     701
157.4400     694
157.5200     543
157.6000     591
157.6800     660
157.7600     690
157.8400     652
157.9200     621
158.0000     711
158.0800     588
158.1600     526
158.2400     585
158.3200     562
158.4000     473
158.4800     530
158.5600     492
158.6400     515
158.7200     597
158.8000     597
158.8800     501
158.9600     540
159.0400     545
159.1200     470
159.2000     539
159.2800     528
159.3600     413
159.4400     476
159.5200     446
159.6000     458
159.6800     517
159.7600     498
159.8400     424
159.9200     384
160.0000     373
160.0800     394
160.1600     422
160.2400     344
160.3200     334
160.4000     417
160.4800     371
160.5600     391
160.6400     418
160.7200     464
160.8000     471
160.8800     357
160.9600     323
161.0400     385
161.1200     430
161.2000     331
161.2800     275
161.3600     345
161.4400     340
161.5200     345
161.6000     438
161.6800     377
161.7600     402
161.8400     430
161.9200     363
161.9800     426