File: XRD_Tool/XRD_Tool/bin/Debug/LDA_sample_name_56789_Psi-24_20180623-000344.txt
141.0000     383
141.0800     308
141.1600     318
141.2400     243
141.3200     229
141.4000     265
141.4800     241
141.5600     269
141.6400     283
141.7200     248
141.8000     263
141.8800     305
141.9600     265
142.0400     295
142.1200     373
142.2000     219
142.2800     286
142.3600     216
142.4400     230
142.5200     252
142.6000     300
142.6800     280
142.7600     167
142.8400     243
142.9200     315
143.0000     215
143.0800     223
143.1600     204
143.2400     296
143.3200     415
143.4000     241
143.4800     267
143.5600     298
143.6400     201
143.7200     256
143.8000     327
143.8800     272
143.9600     332
144.0400     236
144.1200     346
144.2000     349
144.2800     294
144.3600     235
144.4400     290
144.5200     327
144.6000     348
144.6800     251
144.7600     151
144.8400     364
144.9200     215
145.0000     372
145.0800     350
145.1600     170
145.2400     340
145.3200     266
145.4000     404
145.4800     313
145.5600     390
145.6400     242
145.7200     335
145.8000     361
145.8800     422
145.9600     306
146.0400     358
146.1200     362
146.2000     379
146.2800     335
146.3600     346
146.4400     346
146.5200     467
146.6000     348
146.6800     385
146.7600     370
146.8400     392
146.9200     337
147.0000     352
147.0800     346
147.1600     361
147.2400     377
147.3200     341
147.4000     311
147.4800     344
147.5600     358
147.6400     338
147.7200     400
147.8000     439
147.8800     311
147.9600     408
148.0400     330
148.1200     335
148.2000     370
148.2800     293
148.3600     356
148.4400     381
148.5200     473
148.6000     403
148.6800     415
148.7600     304
148.8400     489
148.9200     199
149.0000     376
149.0800     318
149.1600     376
149.2400     360
149.3200     364
149.4000     431
149.4800     369
149.5600     458
149.6400     370
149.7200     477
149.8000     343
149.8800     407
149.9600     451
150.0400     450
150.1200     498
150.2000     376
150.2800     496
150.3600     544
150.4400     531
150.5200     526
150.6000     463
150.6800     614
150.7600     635
150.8400     554
150.9200     591
151.0000     645
151.0800     530
151.1600     501
151.2400     697
151.3200     634
151.4000     763
151.4800     721
151.5600     728
151.6400     763
151.7200     818
151.8000     841
151.8800     883
151.9600     877
152.0400     752
152.1200     895
152.2000     905
152.2800    1031
152.3600    1044
152.4400    1027
152.5200    1183
152.6000    1250
152.6800    1124
152.7600    1351
152.8400    1396
152.9200    1484
153.0000    1528
153.0800    1587
153.1600    1774
153.2400    1881
153.3200    1993
153.4000    1809
153.4800    2106
153.5600    2130
153.6400    2224
153.7200    2391
153.8000    2319
153.8800    2349
153.9600    2350
154.0400    2475
154.1200    2323
154.2000    2521
154.2800    2658
154.3600    2477
154.4400    2808
154.5200    2442
154.6000    2470
154.6800    2604
154.7600    2391
154.8400    2353
154.9200    2274
155.0000    2167
155.0800    2243
155.1600    2185
155.2400    2078
155.3200    1921
155.4000    1963
155.4800    1889
155.5600    1841
155.6400    1854
155.7200    1763
155.8000    1736
155.8800    1678
155.9600    1405
156.0400    1548
156.1200    1411
156.2000    1420
156.2800    1285
156.3600    1245
156.4400    1159
156.5200    1101
156.6000    1141
156.6800    1021
156.7600     941
156.8400     837
156.9200     890
157.0000     803
157.0800     896
157.1600     906
157.2400     738
157.3200     754
157.4000     801
157.4800     753
157.5600     653
157.6400     590
157.7200     549
157.8000     657
157.8800     571
157.9600     576
158.0400     529
158.1200     576
158.2000     580
158.2800     511
158.3600     651
158.4400     527
158.5200     508
158.6000     554
158.6800     472
158.7600     536
158.8400     563
158.9200     318
159.0000     469
159.0800     471
159.1600     476
159.2400     529
159.3200     462
159.4000     510
159.4800     537
159.5600     327
159.6400     462
159.7200     304
159.8000     445
159.8800     448
159.9600     372
160.0400     423
160.1200     344
160.2000     427
160.2800     450
160.3600     401
160.4400     421
160.5200     407
160.6000     408
160.6800     399
160.7600     408
160.8400     421
160.9200     285
161.0000     320
161.0800     432
161.1600     391
161.2400     429
161.3200     424
161.4000     371
161.4800     453
161.5600     477
161.6400     352
161.7200     444
161.8000     344
161.8800     407
161.9600     304
162.0400     375
162.1200     331
162.2000     382
162.2800     400
162.3600     392
162.4400     350
162.5200     415
162.6000     331
162.6800     232
162.7600     275
162.8400     345
162.9200     295
163.0000     313
163.0800     417
163.1600     311
163.2400     399
163.3200     326
163.4000     276
163.4800     298
163.5600     403
163.6400     244
163.7200     269
163.8000     283
163.8800     303
163.9600     299
164.0400     317
164.1200     323
164.2000     351
164.2800     265
164.3600     317
164.4400     231
164.5200     225
164.6000     236
164.6800     256
164.7600     193
164.8400     276
164.9200     316
164.9800     233