File: XRD_Tool/XRD_Tool/bin/Debug/LDA_sample_name_56789_Psi-0_20180623-122834.txt
138.0000     254
138.0800     267
138.1600     330
138.2400     288
138.3200     264
138.4000     180
138.4800     262
138.5600     296
138.6400     210
138.7200     241
138.8000     187
138.8800     259
138.9600     193
139.0400     246
139.1200     319
139.2000     218
139.2800     248
139.3600     319
139.4400     291
139.5200     193
139.6000     241
139.6800     205
139.7600     163
139.8400     291
139.9200     317
140.0000     301
140.0800     257
140.1600     280
140.2400     319
140.3200     309
140.4000     220
140.4800     191
140.5600     228
140.6400     170
140.7200     236
140.8000     145
140.8800     236
140.9600     314
141.0400     322
141.1200     287
141.2000     228
141.2800     225
141.3600     274
141.4400     309
141.5200     222
141.6000     221
141.6800     306
141.7600     282
141.8400     272
141.9200     276
142.0000     277
142.0800     258
142.1600     225
142.2400     247
142.3200     288
142.4000     291
142.4800     203
142.5600     350
142.6400     313
142.7200     322
142.8000     272
142.8800     363
142.9600     316
143.0400     339
143.1200     324
143.2000     275
143.2800     382
143.3600     280
143.4400     293
143.5200     293
143.6000     326
143.6800     216
143.7600     261
143.8400     323
143.9200     343
144.0000     271
144.0800     286
144.1600     345
144.2400     365
144.3200     356
144.4000     275
144.4800     336
144.5600     315
144.6400     326
144.7200     318
144.8000     307
144.8800     319
144.9600     257
145.0400     307
145.1200     289
145.2000     257
145.2800     308
145.3600     387
145.4400     338
145.5200     286
145.6000     329
145.6800     316
145.7600     299
145.8400     279
145.9200     302
146.0000     308
146.0800     346
146.1600     406
146.2400     220
146.3200     274
146.4000     270
146.4800     381
146.5600     285
146.6400     237
146.7200     263
146.8000     355
146.8800     291
146.9600     317
147.0400     387
147.1200     263
147.2000     341
147.2800     343
147.3600     328
147.4400     403
147.5200     307
147.6000     442
147.6800     345
147.7600     343
147.8400     405
147.9200     381
148.0000     396
148.0800     320
148.1600     366
148.2400     443
148.3200     500
148.4000     389
148.4800     368
148.5600     465
148.6400     444
148.7200     433
148.8000     459
148.8800     376
148.9600     464
149.0400     387
149.1200     366
149.2000     438
149.2800     449
149.3600     473
149.4400     409
149.5200     405
149.6000     379
149.6800     452
149.7600     445
149.8400     475
149.9200     363
150.0000     444
150.0800     433
150.1600     434
150.2400     448
150.3200     520
150.4000     480
150.4800     457
150.5600     541
150.6400     589
150.7200     543
150.8000     474
150.8800     480
150.9600     588
151.0400     626
151.1200     643
151.2000     760
151.2800     700
151.3600     638
151.4400     761
151.5200     646
151.6000     745
151.6800     855
151.7600     767
151.8400     748
151.9200     888
152.0000    1014
152.0800     925
152.1600    1088
152.2400    1066
152.3200    1202
152.4000    1168
152.4800    1162
152.5600    1345
152.6400    1504
152.7200    1526
152.8000    1646
152.8800    1827
152.9600    1843
153.0400    1791
153.1200    2003
153.2000    2217
153.2800    2116
153.3600    2255
153.4400    2214
153.5200    2338
153.6000    2445
153.6800    2448
153.7600    2524
153.8400    2489
153.9200    2591
154.0000    2583
154.0800    2370
154.1600    2858
154.2400    2797
154.3200    2569
154.4000    2731
154.4800    2425
154.5600    2510
154.6400    2313
154.7200    2186
154.8000    2192
154.8800    2343
154.9600    2290
155.0400    2007
155.1200    1912
155.2000    1804
155.2800    1723
155.3600    1781
155.4400    1678
155.5200    1518
155.6000    1454
155.6800    1450
155.7600    1477
155.8400    1387
155.9200    1324
156.0000    1210
156.0800    1159
156.1600    1107
156.2400    1133
156.3200     934
156.4000    1026
156.4800    1066
156.5600     877
156.6400     974
156.7200     768
156.8000     704
156.8800     755
156.9600     826
157.0400     816
157.1200     710
157.2000     786
157.2800     728
157.3600     694
157.4400     720
157.5200     574
157.6000     556
157.6800     674
157.7600     644
157.8400     649
157.9200     649
158.0000     665
158.0800     564
158.1600     411
158.2400     491
158.3200     497
158.4000     610
158.4800     508
158.5600     568
158.6400     427
158.7200     466
158.8000     377
158.8800     563
158.9600     462
159.0400     399
159.1200     354
159.2000     464
159.2800     454
159.3600     427
159.4400     478
159.5200     405
159.6000     400
159.6800     339
159.7600     435
159.8400     354
159.9200     351
160.0000     510
160.0800     372
160.1600     373
160.2400     390
160.3200     411
160.4000     323
160.4800     399
160.5600     380
160.6400     321
160.7200     290
160.8000     278
160.8800     320
160.9600     310
161.0400     315
161.1200     304
161.2000     339
161.2800     383
161.3600     412
161.4400     358
161.5200     338
161.6000     317
161.6800     273
161.7600     305
161.8400     233
161.9200     264
161.9800     308