File: XRD_Tool/XRD_Tool/bin/Debug/LDA_sample_name_56789_Psi-0_20180603-121929.txt
128.0000     276
128.0800     258
128.1600     241
128.2400     241
128.3200     246
128.4000     264
128.4800     265
128.5600     226
128.6400     287
128.7200     272
128.8000     268
128.8800     241
128.9600     261
129.0400     260
129.1200     272
129.2000     258
129.2800     237
129.3600     244
129.4400     263
129.5200     239
129.6000     244
129.6800     263
129.7600     262
129.8400     244
129.9200     255
130.0000     258
130.0800     229
130.1600     281
130.2400     256
130.3200     267
130.4000     262
130.4800     251
130.5600     266
130.6400     263
130.7200     264
130.8000     266
130.8800     269
130.9600     264
131.0400     274
131.1200     227
131.2000     260
131.2800     263
131.3600     238
131.4400     222
131.5200     257
131.6000     268
131.6800     237
131.7600     266
131.8400     280
131.9200     268
132.0000     253
132.0800     272
132.1600     250
132.2400     265
132.3200     281
132.4000     273
132.4800     280
132.5600     259
132.6400     241
132.7200     251
132.8000     280
132.8800     257
132.9600     271
133.0400     279
133.1200     292
133.2000     254
133.2800     269
133.3600     245
133.4400     286
133.5200     284
133.6000     264
133.6800     272
133.7600     266
133.8400     276
133.9200     272
134.0000     274
134.0800     281
134.1600     289
134.2400     303
134.3200     268
134.4000     285
134.4800     285
134.5600     262
134.6400     284
134.7200     268
134.8000     288
134.8800     304
134.9600     247
135.0400     266
135.1200     258
135.2000     262
135.2800     282
135.3600     279
135.4400     262
135.5200     262
135.6000     274
135.6800     248
135.7600     278
135.8400     260
135.9200     272
136.0000     244
136.0800     260
136.1600     243
136.2400     261
136.3200     262
136.4000     283
136.4800     282
136.5600     249
136.6400     258
136.7200     290
136.8000     261
136.8800     257
136.9600     256
137.0400     260
137.1200     281
137.2000     266
137.2800     262
137.3600     231
137.4400     272
137.5200     261
137.6000     279
137.6800     248
137.7600     286
137.8400     275
137.9200     267
138.0000     281
138.0800     242
138.1600     279
138.2400     290
138.3200     292
138.4000     242
138.4800     293
138.5600     273
138.6400     281
138.7200     274
138.8000     276
138.8800     275
138.9600     265
139.0400     296
139.1200     277
139.2000     282
139.2800     319
139.3600     280
139.4400     284
139.5200     269
139.6000     282
139.6800     304
139.7600     256
139.8400     267
139.9200     282
140.0000     260
140.0800     270
140.1600     271
140.2400     297
140.3200     275
140.4000     243
140.4800     254
140.5600     271
140.6400     261
140.7200     274
140.8000     264
140.8800     245
140.9600     263
141.0400     285
141.1200     257
141.2000     262
141.2800     282
141.3600     276
141.4400     259
141.5200     272
141.6000     256
141.6800     273
141.7600     264
141.8400     266
141.9200     244
142.0000     260
142.0800     264
142.1600     276
142.2400     255
142.3200     246
142.4000     253
142.4800     273
142.5600     264
142.6400     280
142.7200     261
142.8000     302
142.8800     309
142.9600     252
143.0400     286
143.1200     275
143.2000     290
143.2800     271
143.3600     268
143.4400     266
143.5200     273
143.6000     273
143.6800     267
143.7600     283
143.8400     246
143.9200     280
144.0000     287
144.0800     248
144.1600     254
144.2400     273
144.3200     246
144.4000     268
144.4800     331
144.5600     255
144.6400     283
144.7200     259
144.8000     296
144.8800     267
144.9600     276
145.0400     260
145.1200     281
145.2000     281
145.2800     280
145.3600     271
145.4400     268
145.5200     247
145.6000     251
145.6800     268
145.7600     235
145.8400     251
145.9200     258
146.0000     275
146.0800     285
146.1600     268
146.2400     267
146.3200     272
146.4000     235
146.4800     297
146.5600     276
146.6400     276
146.7200     279
146.8000     282
146.8800     293
146.9600     266
147.0400     235
147.1200     269
147.2000     238
147.2800     272
147.3600     304
147.4400     252
147.5200     260
147.6000     283
147.6800     276
147.7600     308
147.8400     296
147.9200     283
148.0000     280
148.0800     271
148.1600     282
148.2400     283
148.3200     236
148.4000     272
148.4800     283
148.5600     277
148.6400     270
148.7200     278
148.8000     274
148.8800     267
148.9600     262
149.0400     287
149.1200     279
149.2000     262
149.2800     279
149.3600     274
149.4400     283
149.5200     274
149.6000     264
149.6800     278
149.7600     275
149.8400     295
149.9200     282
150.0000     283
150.0800     284
150.1600     272
150.2400     283
150.3200     270
150.4000     280
150.4800     300
150.5600     276
150.6400     273
150.7200     319
150.8000     280
150.8800     272
150.9600     285
151.0400     292
151.1200     304
151.2000     295
151.2800     269
151.3600     297
151.4400     300
151.5200     263
151.6000     288
151.6800     293
151.7600     275
151.8400     326
151.9200     313
151.9600     319