File: XRD_Tool/XRD_Tool/bin/Debug/LDA_sample_name_56789_Psi-24_20180623-125737.txt
138.0000      93
138.0800     144
138.1600     122
138.2400      95
138.3200      92
138.4000      90
138.4800      66
138.5600      72
138.6400      88
138.7200     109
138.8000      83
138.8800     109
138.9600      86
139.0400     107
139.1200     116
139.2000      72
139.2800     101
139.3600      64
139.4400      74
139.5200     101
139.6000      65
139.6800      91
139.7600      84
139.8400      94
139.9200      68
140.0000     100
140.0800     108
140.1600      85
140.2400      63
140.3200     108
140.4000      54
140.4800      72
140.5600      89
140.6400     102
140.7200      58
140.8000      59
140.8800      91
140.9600     103
141.0400      76
141.1200      75
141.2000     119
141.2800      97
141.3600      81
141.4400     121
141.5200      69
141.6000      76
141.6800      96
141.7600      93
141.8400      84
141.9200      81
142.0000      76
142.0800      79
142.1600      90
142.2400      69
142.3200      80
142.4000     121
142.4800      70
142.5600      85
142.6400      94
142.7200      83
142.8000      83
142.8800      90
142.9600      81
143.0400      66
143.1200     106
143.2000     114
143.2800      74
143.3600      81
143.4400     115
143.5200      71
143.6000      71
143.6800      91
143.7600      75
143.8400      81
143.9200      85
144.0000     118
144.0800      97
144.1600     113
144.2400      93
144.3200      61
144.4000     102
144.4800      67
144.5600      95
144.6400      82
144.7200      67
144.8000     110
144.8800      86
144.9600      39
145.0400      88
145.1200      90
145.2000      52
145.2800      53
145.3600      73
145.4400      66
145.5200      86
145.6000      75
145.6800     125
145.7600      75
145.8400      72
145.9200     106
146.0000      86
146.0800      75
146.1600      95
146.2400      64
146.3200     120
146.4000      79
146.4800     116
146.5600     102
146.6400      88
146.7200      72
146.8000      90
146.8800     103
146.9600      50
147.0400      89
147.1200     111
147.2000     107
147.2800      72
147.3600      82
147.4400     135
147.5200      61
147.6000      97
147.6800      54
147.7600      64
147.8400     135
147.9200      85
148.0000      45
148.0800      59
148.1600      50
148.2400      70
148.3200      89
148.4000      97
148.4800      81
148.5600      95
148.6400      82
148.7200      77
148.8000     141
148.8800      72
148.9600      87
149.0400      96
149.1200      70
149.2000      77
149.2800      77
149.3600      83
149.4400     110
149.5200      73
149.6000      66
149.6800      83
149.7600      59
149.8400      79
149.9200     108
150.0000      49
150.0800      75
150.1600      88
150.2400      77
150.3200     107
150.4000      95
150.4800      71
150.5600     109
150.6400      99
150.7200      96
150.8000      82
150.8800     102
150.9600      85
151.0400     108
151.1200      60
151.2000      78
151.2800      80
151.3600      88
151.4400     106
151.5200      77
151.6000      99
151.6800      82
151.7600      94
151.8400     106
151.9200      92
152.0000      74
152.0800      57
152.1600      80
152.2400      51
152.3200      70
152.4000      90
152.4800      48
152.5600      61
152.6400      69
152.7200      74
152.8000     104
152.8800     100
152.9600      97
153.0400      90
153.1200      86
153.2000      86
153.2800      62
153.3600      81
153.4400      48
153.5200      60
153.6000      58
153.6800      69
153.7600     104
153.8400      72
153.9200     110
154.0000     105
154.0800      89
154.1600      66
154.2400      60
154.3200      57
154.4000      95
154.4800      87
154.5600     107
154.6400      42
154.7200      43
154.8000     102
154.8800      53
154.9600      37
155.0400      57
155.1200      92
155.2000      51
155.2800      75
155.3600      51
155.4400      73
155.5200      48
155.6000      81
155.6800     113
155.7600      69
155.8400      99
155.9200      72
156.0000      69
156.0800      47
156.1600      64
156.2400      71
156.3200      45
156.4000      53
156.4800      66
156.5600      63
156.6400      92
156.7200      64
156.8000     115
156.8800      82
156.9600      28
157.0400      78
157.1200     112
157.2000     116
157.2800      63
157.3600      89
157.4400     107
157.5200      40
157.6000      64
157.6800      74
157.7600      91
157.8400      62
157.9200      54
158.0000      48
158.0800      85
158.1600      91
158.2400      61
158.3200      83
158.4000      43
158.4800      88
158.5600      74
158.6400      51
158.7200      86
158.8000      92
158.8800      29
158.9600      64
159.0400      36
159.1200     114
159.2000      77
159.2800      80
159.3600      50
159.4400      48
159.5200      67
159.6000      41
159.6800      76
159.7600     101
159.8400      78
159.9200      50
160.0000      22
160.0800      32
160.1600      28
160.2400      52
160.3200      35
160.4000      68
160.4800      60
160.5600      91
160.6400      83
160.7200      71
160.8000      73
160.8800      47
160.9600       1
161.0400      71
161.1200      44
161.2000      60
161.2800      61
161.3600      86
161.4400      68
161.5200      45
161.6000      42
161.6800      20
161.7600      73
161.8400      96
161.9200      56
161.9800     103