File: XRD_Tool/XRD_Tool/bin/Debug/LDA_sample_name_56789_Psi-0_20180623-124854.txt
138.0000     152
138.0800     251
138.1600     219
138.2400     224
138.3200     362
138.4000     173
138.4800     289
138.5600     261
138.6400     336
138.7200     273
138.8000     198
138.8800     258
138.9600     227
139.0400     277
139.1200     268
139.2000     191
139.2800     279
139.3600     303
139.4400     236
139.5200     254
139.6000     317
139.6800     308
139.7600     307
139.8400     211
139.9200     312
140.0000     255
140.0800     264
140.1600     259
140.2400     319
140.3200     304
140.4000     254
140.4800     228
140.5600     141
140.6400     319
140.7200     320
140.8000     311
140.8800     190
140.9600     310
141.0400     268
141.1200     257
141.2000     223
141.2800     313
141.3600     286
141.4400     306
141.5200     157
141.6000     348
141.6800     301
141.7600     290
141.8400     284
141.9200     307
142.0000     271
142.0800     319
142.1600     349
142.2400     242
142.3200     356
142.4000     324
142.4800     343
142.5600     311
142.6400     206
142.7200     302
142.8000     314
142.8800     434
142.9600     349
143.0400     378
143.1200     364
143.2000     292
143.2800     345
143.3600     329
143.4400     339
143.5200     296
143.6000     379
143.6800     309
143.7600     307
143.8400     416
143.9200     332
144.0000     287
144.0800     272
144.1600     320
144.2400     462
144.3200     366
144.4000     373
144.4800     264
144.5600     299
144.6400     263
144.7200     321
144.8000     318
144.8800     347
144.9600     289
145.0400     322
145.1200     414
145.2000     359
145.2800     289
145.3600     331
145.4400     417
145.5200     343
145.6000     271
145.6800     349
145.7600     382
145.8400     491
145.9200     299
146.0000     323
146.0800     357
146.1600     369
146.2400     332
146.3200     202
146.4000     391
146.4800     300
146.5600     291
146.6400     286
146.7200     406
146.8000     422
146.8800     332
146.9600     300
147.0400     419
147.1200     388
147.2000     259
147.2800     350
147.3600     445
147.4400     491
147.5200     411
147.6000     356
147.6800     343
147.7600     448
147.8400     409
147.9200     379
148.0000     474
148.0800     379
148.1600     383
148.2400     376
148.3200     377
148.4000     454
148.4800     361
148.5600     381
148.6400     501
148.7200     426
148.8000     347
148.8800     488
148.9600     493
149.0400     433
149.1200     425
149.2000     470
149.2800     442
149.3600     393
149.4400     443
149.5200     468
149.6000     392
149.6800     388
149.7600     440
149.8400     413
149.9200     475
150.0000     447
150.0800     491
150.1600     504
150.2400     506
150.3200     566
150.4000     520
150.4800     543
150.5600     585
150.6400     488
150.7200     531
150.8000     639
150.8800     599
150.9600     556
151.0400     641
151.1200     623
151.2000     644
151.2800     713
151.3600     710
151.4400     835
151.5200     732
151.6000     877
151.6800     774
151.7600     796
151.8400     921
151.9200     884
152.0000     939
152.0800    1063
152.1600     996
152.2400    1166
152.3200    1058
152.4000    1108
152.4800    1320
152.5600    1386
152.6400    1607
152.7200    1647
152.8000    1594
152.8800    1809
152.9600    1914
153.0400    1906
153.1200    2070
153.2000    2067
153.2800    2057
153.3600    2318
153.4400    2269
153.5200    2405
153.6000    2522
153.6800    2493
153.7600    2819
153.8400    2661
153.9200    2630
154.0000    2613
154.0800    2542
154.1600    2775
154.2400    2651
154.3200    2683
154.4000    2670
154.4800    2518
154.5600    2602
154.6400    2334
154.7200    2372
154.8000    2197
154.8800    2438
154.9600    2280
155.0400    2309
155.1200    1900
155.2000    1917
155.2800    1973
155.3600    1775
155.4400    1707
155.5200    1564
155.6000    1534
155.6800    1431
155.7600    1373
155.8400    1426
155.9200    1252
156.0000    1298
156.0800    1229
156.1600    1183
156.2400    1200
156.3200    1099
156.4000    1002
156.4800    1006
156.5600     996
156.6400     876
156.7200     880
156.8000    1008
156.8800     771
156.9600     703
157.0400     798
157.1200     810
157.2000     675
157.2800     645
157.3600     695
157.4400     629
157.5200     651
157.6000     638
157.6800     718
157.7600     590
157.8400     633
157.9200     578
158.0000     612
158.0800     574
158.1600     631
158.2400     536
158.3200     507
158.4000     513
158.4800     484
158.5600     541
158.6400     515
158.7200     490
158.8000     528
158.8800     391
158.9600     511
159.0400     423
159.1200     502
159.2000     465
159.2800     527
159.3600     482
159.4400     508
159.5200     409
159.6000     375
159.6800     465
159.7600     431
159.8400     406
159.9200     374
160.0000     409
160.0800     382
160.1600     344
160.2400     404
160.3200     334
160.4000     298
160.4800     288
160.5600     371
160.6400     321
160.7200     399
160.8000     343
160.8800     370
160.9600     329
161.0400     193
161.1200     363
161.2000     373
161.2800     314
161.3600     253
161.4400     332
161.5200     307
161.6000     282
161.6800     342
161.7600     334
161.8400     266
161.9200     283
161.9800     223