File: XRD_Tool/XRD_Tool/bin/Debug/LDA_sample_name_56789_Psi-15_20180622-214052.txt
137.2000    1160
137.2800    1147
137.3600    1166
137.4400    1251
137.5200    1236
137.6000    1163
137.6800    1160
137.7600    1143
137.8400    1281
137.9200    1221
138.0000    1263
138.0800    1283
138.1600    1227
138.2400    1163
138.3200    1139
138.4000    1176
138.4800    1243
138.5600    1209
138.6400    1216
138.7200    1270
138.8000    1198
138.8800    1225
138.9600    1227
139.0400    1174
139.1200    1220
139.2000    1269
139.2800    1196
139.3600    1271
139.4400    1272
139.5200    1244
139.6000    1311
139.6800    1077
139.7600    1151
139.8400    1236
139.9200    1269
140.0000    1217
140.0800    1226
140.1600    1311
140.2400    1222
140.3200    1158
140.4000    1132
140.4800    1275
140.5600    1274
140.6400    1224
140.7200    1214
140.8000    1135
140.8800    1093
140.9600    1165
141.0400    1224
141.1200    1141
141.2000    1315
141.2800    1194
141.3600    1302
141.4400    1251
141.5200    1228
141.6000    1215
141.6800    1261
141.7600    1341
141.8400    1152
141.9200    1277
142.0000    1204
142.0800    1368
142.1600    1275
142.2400    1280
142.3200    1242
142.4000    1234
142.4800    1338
142.5600    1189
142.6400    1320
142.7200    1228
142.8000    1280
142.8800    1303
142.9600    1217
143.0400    1225
143.1200    1236
143.2000    1306
143.2800    1296
143.3600    1298
143.4400    1242
143.5200    1361
143.6000    1303
143.6800    1195
143.7600    1216
143.8400    1255
143.9200    1314
144.0000    1299
144.0800    1234
144.1600    1292
144.2400    1320
144.3200    1323
144.4000    1327
144.4800    1316
144.5600    1259
144.6400    1301
144.7200    1322
144.8000    1316
144.8800    1301
144.9600    1310
145.0400    1259
145.1200    1240
145.2000    1170
145.2800    1241
145.3600    1129
145.4400    1249
145.5200    1192
145.6000    1241
145.6800    1388
145.7600    1284
145.8400    1171
145.9200    1254
146.0000    1262
146.0800    1239
146.1600    1222
146.2400    1323
146.3200    1342
146.4000    1208
146.4800    1258
146.5600    1328
146.6400    1395
146.7200    1356
146.8000    1424
146.8800    1283
146.9600    1340
147.0400    1399
147.1200    1264
147.2000    1427
147.2800    1330
147.3600    1420
147.4400    1354
147.5200    1306
147.6000    1380
147.6800    1353
147.7600    1442
147.8400    1320
147.9200    1395
148.0000    1447
148.0800    1338
148.1600    1415
148.2400    1409
148.3200    1373
148.4000    1399
148.4800    1328
148.5600    1340
148.6400    1521
148.7200    1485
148.8000    1443
148.8800    1391
148.9600    1359
149.0400    1445
149.1200    1449
149.2000    1421
149.2800    1425
149.3600    1395
149.4400    1448
149.5200    1409
149.6000    1397
149.6800    1403
149.7600    1449
149.8400    1580
149.9200    1489
150.0000    1432
150.0800    1495
150.1600    1557
150.2400    1536
150.3200    1583
150.4000    1546
150.4800    1582
150.5600    1667
150.6400    1773
150.7200    1593
150.8000    1824
150.8800    1721
150.9600    1824
151.0400    1868
151.1200    1824
151.2000    1946
151.2800    1799
151.3600    1911
151.4400    1882
151.5200    2106
151.6000    2059
151.6800    2095
151.7600    2282
151.8400    2327
151.9200    2505
152.0000    2418
152.0800    2739
152.1600    2597
152.2400    2706
152.3200    2838
152.4000    2921
152.4800    2894
152.5600    3013
152.6400    3085
152.7200    3148
152.8000    3441
152.8800    3293
152.9600    3439
153.0400    3494
153.1200    3688
153.2000    3526
153.2800    3494
153.3600    3858
153.4400    3563
153.5200    3518
153.6000    3614
153.6800    3655
153.7600    3595
153.8400    3405
153.9200    3330
154.0000    3279
154.0800    3254
154.1600    3337
154.2400    3226
154.3200    3083
154.4000    2848
154.4800    2895
154.5600    2890
154.6400    2713
154.7200    2767
154.8000    2536
154.8800    2531
154.9600    2510
155.0400    2570
155.1200    2347
155.2000    2248
155.2800    2197
155.3600    2214
155.4400    2063
155.5200    2123
155.6000    2005
155.6800    1943
155.7600    1877
155.8400    1864
155.9200    1728
156.0000    1755
156.0800    1840
156.1600    1744
156.2400    1663
156.3200    1684
156.4000    1511
156.4800    1675
156.5600    1645
156.6400    1605
156.7200    1475
156.8000    1485
156.8800    1680
156.9600    1644
157.0400    1712
157.1200    1603
157.2000    1529
157.2800    1463
157.3600    1481
157.4400    1574
157.5200    1475
157.6000    1504
157.6800    1485
157.7600    1567
157.8400    1570
157.9200    1512
158.0000    1456
158.0800    1521
158.1600    1361
158.2400    1405
158.3200    1385
158.4000    1420
158.4800    1486
158.5600    1381
158.6400    1326
158.7200    1412
158.8000    1298
158.8800    1358
158.9600    1410
159.0400    1292
159.1200    1356
159.2000    1315
159.2800    1333
159.3600    1322
159.4400    1255
159.5200    1311
159.6000    1351
159.6800    1271
159.7600    1386
159.8400    1214
159.9200    1355
160.0000    1282
160.0800    1296
160.1600    1219
160.2400    1302
160.3200    1248
160.4000    1216
160.4800    1161
160.5600    1306
160.6400    1196
160.7200    1263
160.8000    1271
160.8800    1293
160.9600    1184
161.0400    1291
161.1200    1250
161.1800    1125