File: XRD_Tool/XRD_Tool/bin/Debug/LDA_sample_name_56789_Psi-33_20180603-095438.txt
155.0000   13330
155.1200   13330
155.2400   13330
155.3600   13330
155.4800   13330
155.6000   13330
155.7200   13330
155.8400   13330
155.9600   13330
156.0800   13330
156.2000   13330
156.3200   13330
156.4400   13330
156.5600   13330
156.6800   13330
156.8000   13330
156.9200   13330
157.0400   13330
157.1600   13330
157.2800   13330
157.4000   13330
157.5200   13330
157.6400   13330
157.7600   13330
157.8800   13330
158.0000   13330
158.1200   13330
158.2400   13330
158.3600   13330
158.4800   13330
158.6000   13330
158.7200   13330
158.8400   13330
158.9600   13330
159.0800   13330
159.2000   13330
159.3200   13330
159.4400   13330
159.5600   13330
159.6800   13330
159.8000   13330
159.9200   13330
160.0400   13330
160.1600   13330
160.2800   13330
160.4000   13330
160.5200   13330
160.6400   13330
160.7600   13330
160.8800   13330
161.0000   13330
161.1200   13330
161.2400   13330
161.3600   13330
161.4800   13330
161.6000   13330
161.7200   13330
161.8400   13330
161.9600   13330
162.0800   13330
162.2000   13330
162.3200   13330
162.4400   13330
162.5600   13330
162.6800   13330
162.8000   13330
162.9200   13330
163.0400   13330
163.1600   13330
163.2800   13330
163.4000   13330
163.5200   13330
163.6400   13330
163.7600   13330
163.8800   13330
164.0000   13330
164.1200   13330
164.2400   13330
164.3600   13330
164.4800   13330
164.6000   13330
164.7200   13330
164.8400   13330
164.9600   13330
165.0800   13330
165.2000   13330
165.3200   13330
165.4400   13330
165.5600   13330
165.6800   13330
165.8000   13330
165.9200   13330
166.0400   13330
166.1600   13330
166.2800   13330
166.4000   13330
166.5200   13330
166.6400   13330
166.7600   13330
166.8800   13330
167.0000   13330
167.1200   13330
167.2400   13330
167.3600   13330
167.4800   13330
167.6000   13330
167.7200   13330
167.8400   13330
167.9600   13330
168.0800   13330
168.2000   13330
168.3200   13330
168.4400   13330
168.5600   13330
168.6800   13330
168.8000   13330
168.9200   13330
169.0400   13330
169.1600   13330
169.2800   13330
169.4000   13330
169.5200   13330
169.6400   13330
169.7600   13330
169.8800   13330
170.0000   13330
170.1200   13330
170.2400   13330
170.3600   13330
170.4800   13330
170.6000   13330
170.7200   13330
170.8400   13330
170.9600   13330
171.0800   13330
171.2000   13330
171.3200   13330
171.4400   13330
171.5600   13330
171.6800   13330
171.8000   13330
171.9200   13330
172.0400   13330
172.1600   13330
172.2800   13330
172.4000   13330
172.5200   13330
172.6400   13330
172.7600   13330
172.8800   13330
173.0000   13330
173.1200   13330
173.2400   13330
173.3600   13330
173.4800   13330
173.6000   13330
173.7200   13330
173.8400   13330
173.9600   13330
174.0800   13330
174.2000   13330
174.3200   13330
174.4400   13330
174.5600   13330
174.6800   13330
174.8000   13330
174.9200   13330
175.0400   13330
175.1600   13330
175.2800   13330
175.4000   13330
175.5200   13330
175.6400   13330
175.7600   13330
175.8800   13330
176.0000   13330
176.1200   13330
176.2400   13330
176.3600   13330
176.4800   13330
176.6000   13330
176.7200   13330
176.8400   13330
176.9600   13330
177.0800   13330
177.2000   13330
177.3200   13330
177.4400   13330
177.5600   13330
177.6800   13330
177.8000   13330
177.9200   13330
178.0400   13330
178.1600   13330
178.2800   13330
178.4000   13330
178.5200   13330
178.6400   13330
178.7600   13330
178.8800   13330
179.0000   13330
179.1200   13330
179.2400   13330
179.3600   13330
179.4800   13330
179.6000   13330
179.7200   13330
179.8400   13330
179.9600   13330
180.0800   13330
180.2000   13330
180.3200   13330
180.4400   13330
180.5600   13330