File: XRD_Tool/XRD_Tool/bin/Debug/LDA_sample_name_56789_Psi-0_20180622-235655.txt
138.0000     305
138.0800     219
138.1600     235
138.2400     231
138.3200     176
138.4000     240
138.4800     248
138.5600     163
138.6400     193
138.7200     196
138.8000     251
138.8800     173
138.9600     288
139.0400     134
139.1200     248
139.2000     291
139.2800     124
139.3600     210
139.4400     209
139.5200     115
139.6000     177
139.6800     126
139.7600     224
139.8400     222
139.9200     163
140.0000     227
140.0800     257
140.1600     176
140.2400     200
140.3200     196
140.4000     214
140.4800     200
140.5600     212
140.6400     195
140.7200     208
140.8000     297
140.8800     164
140.9600     201
141.0400     263
141.1200     194
141.2000     159
141.2800     249
141.3600     150
141.4400     323
141.5200     193
141.6000     180
141.6800     213
141.7600     237
141.8400     196
141.9200     188
142.0000     237
142.0800     150
142.1600     215
142.2400     300
142.3200     233
142.4000     192
142.4800     253
142.5600     222
142.6400     203
142.7200     318
142.8000     313
142.8800     251
142.9600     190
143.0400     352
143.1200     346
143.2000     412
143.2800     303
143.3600     220
143.4400     188
143.5200     242
143.6000     198
143.6800     227
143.7600     339
143.8400     353
143.9200     241
144.0000     345
144.0800     269
144.1600     241
144.2400     288
144.3200     216
144.4000     263
144.4800     203
144.5600     271
144.6400     301
144.7200     273
144.8000     252
144.8800     291
144.9600     304
145.0400     296
145.1200     269
145.2000     327
145.2800     317
145.3600     265
145.4400     265
145.5200     157
145.6000     323
145.6800     290
145.7600     197
145.8400     313
145.9200     232
146.0000     319
146.0800     349
146.1600     244
146.2400     310
146.3200     332
146.4000     267
146.4800     389
146.5600     154
146.6400     357
146.7200     289
146.8000     330
146.8800     330
146.9600     280
147.0400     316
147.1200     239
147.2000     300
147.2800     304
147.3600     233
147.4400     287
147.5200     372
147.6000     307
147.6800     368
147.7600     376
147.8400     373
147.9200     338
148.0000     322
148.0800     352
148.1600     396
148.2400     237
148.3200     406
148.4000     372
148.4800     436
148.5600     385
148.6400     368
148.7200     443
148.8000     300
148.8800     325
148.9600     441
149.0400     404
149.1200     268
149.2000     463
149.2800     402
149.3600     428
149.4400     442
149.5200     395
149.6000     363
149.6800     353
149.7600     364
149.8400     435
149.9200     364
150.0000     465
150.0800     372
150.1600     372
150.2400     450
150.3200     404
150.4000     514
150.4800     537
150.5600     435
150.6400     476
150.7200     539
150.8000     384
150.8800     592
150.9600     543
151.0400     651
151.1200     512
151.2000     664
151.2800     673
151.3600     743
151.4400     662
151.5200     737
151.6000     743
151.6800     767
151.7600     751
151.8400     913
151.9200     797
152.0000     951
152.0800     934
152.1600     972
152.2400     961
152.3200    1108
152.4000    1264
152.4800    1220
152.5600    1344
152.6400    1408
152.7200    1571
152.8000    1674
152.8800    1745
152.9600    1897
153.0400    1890
153.1200    2021
153.2000    2078
153.2800    2088
153.3600    2054
153.4400    2355
153.5200    2384
153.6000    2584
153.6800    2458
153.7600    2659
153.8400    2608
153.9200    2613
154.0000    2597
154.0800    2651
154.1600    2770
154.2400    2657
154.3200    2408
154.4000    2623
154.4800    2438
154.5600    2511
154.6400    2416
154.7200    2193
154.8000    2152
154.8800    2128
154.9600    2132
155.0400    1966
155.1200    1967
155.2000    1888
155.2800    1981
155.3600    1910
155.4400    1795
155.5200    1459
155.6000    1492
155.6800    1444
155.7600    1441
155.8400    1376
155.9200    1080
156.0000    1213
156.0800    1226
156.1600    1000
156.2400    1046
156.3200    1090
156.4000     991
156.4800    1029
156.5600     816
156.6400     793
156.7200     760
156.8000     723
156.8800     703
156.9600     698
157.0400     577
157.1200     583
157.2000     585
157.2800     577
157.3600     706
157.4400     578
157.5200     609
157.6000     531
157.6800     556
157.7600     424
157.8400     539
157.9200     568
158.0000     561
158.0800     535
158.1600     424
158.2400     434
158.3200     378
158.4000     418
158.4800     402
158.5600     487
158.6400     359
158.7200     443
158.8000     223
158.8800     376
158.9600     407
159.0400     364
159.1200     436
159.2000     355
159.2800     481
159.3600     402
159.4400     333
159.5200     336
159.6000     249
159.6800     327
159.7600     371
159.8400     369
159.9200     294
160.0000     302
160.0800     357
160.1600     278
160.2400     302
160.3200     312
160.4000     342
160.4800     246
160.5600     328
160.6400     303
160.7200     204
160.8000     265
160.8800     255
160.9600     258
161.0400     319
161.1200     321
161.2000     222
161.2800     305
161.3600     260
161.4400     150
161.5200     262
161.6000     272
161.6800      99
161.7600     208
161.8400     300
161.9200     208
161.9800     327