File: XRD_Tool/XRD_Tool/bin/Debug/LDA_sample_name_56789_Psi-0_20180603-114339.txt
137.2000     254
137.3200     227
137.4400     291
137.5600     250
137.6800     219
137.8000     274
137.9200     247
138.0400     240
138.1600     266
138.2800     292
138.4000     247
138.5200     288
138.6400     239
138.7600     262
138.8800     238
139.0000     246
139.1200     295
139.2400     269
139.3600     226
139.4800     248
139.6000     223
139.7200     264
139.8400     260
139.9600     254
140.0800     254
140.2000     261
140.3200     239
140.4400     288
140.5600     249
140.6800     262
140.8000     271
140.9200     273
141.0400     271
141.1600     271
141.2800     257
141.4000     267
141.5200     266
141.6400     258
141.7600     264
141.8800     245
142.0000     277
142.1200     236
142.2400     254
142.3600     274
142.4800     262
142.6000     304
142.7200     272
142.8400     263
142.9600     259
143.0800     279
143.2000     257
143.3200     288
143.4400     248
143.5600     243
143.6800     258
143.8000     304
143.9200     272
144.0400     282
144.1600     256
144.2800     300
144.4000     268
144.5200     271
144.6400     255
144.7600     270
144.8800     271
145.0000     279
145.1200     239
145.2400     305
145.3600     304
145.4800     283
145.6000     264
145.7200     298
145.8400     277
145.9600     277
146.0800     254
146.2000     272
146.3200     265
146.4400     269
146.5600     225
146.6800     285
146.8000     303
146.9200     265
147.0400     299
147.1600     290
147.2800     252
147.4000     275
147.5200     272
147.6400     280
147.7600     262
147.8800     282
148.0000     288
148.1200     254
148.2400     311
148.3600     291
148.4800     294
148.6000     273
148.7200     256
148.8400     282
148.9600     271
149.0800     299
149.2000     285
149.3200     284
149.4400     320
149.5600     299
149.6800     283
149.8000     276
149.9200     351
150.0400     321
150.1600     295
150.2800     292
150.4000     292
150.5200     318
150.6400     290
150.7600     336
150.8800     330
151.0000     324
151.1200     317
151.2400     319
151.3600     328
151.4800     331
151.6000     343
151.7200     355
151.8400     414
151.9600     365
152.0800     384
152.2000     381
152.3200     395
152.4400     415
152.5600     417
152.6800     507
152.8000     457
152.9200     493
153.0400     514
153.1600     561
153.2800     624
153.4000     652
153.5200     579
153.6400     633
153.7600     696
153.8800     724
154.0000     675
154.1200     728
154.2400     740
154.3600     704
154.4800     712
154.6000     769
154.7200     703
154.8400     770
154.9600     810
155.0800     760
155.2000     701
155.3200     709
155.4400     610
155.5600     654
155.6800     561
155.8000     604
155.9200     539
156.0400     550
156.1600     539
156.2800     563
156.4000     447
156.5200     480
156.6400     457
156.7600     447
156.8800     469
157.0000     432
157.1200     412
157.2400     344
157.3600     386
157.4800     373
157.6000     361
157.7200     378
157.8400     373
157.9600     366
158.0800     350
158.2000     318
158.3200     314
158.4400     352
158.5600     288
158.6800     325
158.8000     353
158.9200     300
159.0400     301
159.1600     310
159.2800     333
159.4000     338
159.5200     300
159.6400     312
159.7600     296
159.8800     300
160.0000     305
160.1200     296
160.2400     308
160.3600     270
160.4800     302
160.6000     276
160.7200     302
160.8400     324
160.9600     311
161.0800     276
161.2000     269
161.3200     267
161.4400     301
161.5600     279
161.6800     248
161.8000     272
161.9200     236
162.0400     293
162.1600     245
162.2800     291
162.4000     257
162.5200     232
162.6400     269
162.7600     238