File: XRD_Tool/XRD_Tool/bin/Debug/LDA_sample_name_56789_Psi-45_20180622-235844.txt
141.0000     257
141.0800     236
141.1600     321
141.2400     280
141.3200     326
141.4000     243
141.4800     325
141.5600     202
141.6400     371
141.7200     275
141.8000     227
141.8800     253
141.9600     329
142.0400     302
142.1200     278
142.2000     254
142.2800     252
142.3600     287
142.4400     345
142.5200     242
142.6000     253
142.6800     297
142.7600     166
142.8400     263
142.9200     141
143.0000     330
143.0800     351
143.1600     336
143.2400     386
143.3200     233
143.4000     214
143.4800     266
143.5600     235
143.6400     322
143.7200     283
143.8000     306
143.8800     202
143.9600     322
144.0400     346
144.1200     282
144.2000     295
144.2800     357
144.3600     217
144.4400     368
144.5200     312
144.6000     191
144.6800     358
144.7600     294
144.8400     370
144.9200     267
145.0000     342
145.0800     361
145.1600     248
145.2400     289
145.3200     446
145.4000     353
145.4800     395
145.5600     325
145.6400     321
145.7200     346
145.8000     342
145.8800     360
145.9600     414
146.0400     350
146.1200     344
146.2000     305
146.2800     267
146.3600     361
146.4400     325
146.5200     364
146.6000     309
146.6800     273
146.7600     323
146.8400     470
146.9200     319
147.0000     363
147.0800     487
147.1600     403
147.2400     335
147.3200     512
147.4000     333
147.4800     345
147.5600     290
147.6400     355
147.7200     346
147.8000     306
147.8800     394
147.9600     428
148.0400     359
148.1200     418
148.2000     475
148.2800     391
148.3600     407
148.4400     346
148.5200     325
148.6000     375
148.6800     409
148.7600     451
148.8400     312
148.9200     373
149.0000     414
149.0800     402
149.1600     344
149.2400     430
149.3200     351
149.4000     448
149.4800     358
149.5600     422
149.6400     422
149.7200     394
149.8000     517
149.8800     583
149.9600     400
150.0400     442
150.1200     532
150.2000     468
150.2800     414
150.3600     394
150.4400     658
150.5200     514
150.6000     500
150.6800     462
150.7600     522
150.8400     527
150.9200     537
151.0000     551
151.0800     510
151.1600     570
151.2400     659
151.3200     628
151.4000     651
151.4800     687
151.5600     588
151.6400     709
151.7200     753
151.8000     697
151.8800     858
151.9600     668
152.0400     777
152.1200     800
152.2000     755
152.2800     792
152.3600     866
152.4400     840
152.5200     924
152.6000     850
152.6800    1062
152.7600    1085
152.8400    1034
152.9200    1232
153.0000    1020
153.0800    1173
153.1600    1318
153.2400    1335
153.3200    1513
153.4000    1393
153.4800    1625
153.5600    1534
153.6400    1647
153.7200    1791
153.8000    1763
153.8800    2013
153.9600    1951
154.0400    2182
154.1200    2050
154.2000    2147
154.2800    2172
154.3600    2247
154.4400    2492
154.5200    2356
154.6000    2449
154.6800    2447
154.7600    2344
154.8400    2483
154.9200    2377
155.0000    2321
155.0800    2319
155.1600    2352
155.2400    2255
155.3200    2256
155.4000    2259
155.4800    2070
155.5600    2308
155.6400    2125
155.7200    2108
155.8000    2038
155.8800    2006
155.9600    1905
156.0400    1686
156.1200    1811
156.2000    1709
156.2800    1575
156.3600    1597
156.4400    1513
156.5200    1483
156.6000    1400
156.6800    1245
156.7600    1292
156.8400    1393
156.9200    1071
157.0000    1028
157.0800    1076
157.1600    1146
157.2400     942
157.3200     895
157.4000     916
157.4800     862
157.5600     853
157.6400     976
157.7200     801
157.8000     868
157.8800     821
157.9600     884
158.0400     820
158.1200     639
158.2000     721
158.2800     683
158.3600     671
158.4400     607
158.5200     715
158.6000     664
158.6800     688
158.7600     524
158.8400     561
158.9200     535
159.0000     661
159.0800     586
159.1600     562
159.2400     434
159.3200     569
159.4000     474
159.4800     470
159.5600     472
159.6400     421
159.7200     408
159.8000     429
159.8800     531
159.9600     403
160.0400     426
160.1200     361
160.2000     461
160.2800     426
160.3600     410
160.4400     321
160.5200     379
160.6000     450
160.6800     534
160.7600     418
160.8400     472
160.9200     416
161.0000     468
161.0800     517
161.1600     517
161.2400     423
161.3200     372
161.4000     247
161.4800     441
161.5600     414
161.6400     301
161.7200     380
161.8000     312
161.8800     403
161.9600     462
162.0400     367
162.1200     419
162.2000     398
162.2800     431
162.3600     313
162.4400     442
162.5200     271
162.6000     458
162.6800     452
162.7600     501
162.8400     404
162.9200     370
163.0000     309
163.0800     376
163.1600     202
163.2400     289
163.3200     350
163.4000     328
163.4800     369
163.5600     320
163.6400     346
163.7200     366
163.8000     326
163.8800     244
163.9600     300
164.0400     336
164.1200     329
164.2000     399
164.2800     351
164.3600     306
164.4400     361
164.5200     302
164.6000     311
164.6800     350
164.7600     360
164.8400     321
164.9200     349
164.9800     163