File: XRD_Tool/XRD_Tool/bin/Debug/LDA_sample_name_56789_Psi-24_20180623-123627.txt
138.0000     237
138.0800     169
138.1600     211
138.2400     257
138.3200     218
138.4000     253
138.4800     226
138.5600     225
138.6400     234
138.7200     211
138.8000     233
138.8800     266
138.9600     224
139.0400     229
139.1200     223
139.2000     249
139.2800     238
139.3600     190
139.4400     251
139.5200     279
139.6000     220
139.6800     183
139.7600     216
139.8400     203
139.9200     209
140.0000     237
140.0800     172
140.1600     246
140.2400     329
140.3200     264
140.4000     306
140.4800     187
140.5600     331
140.6400     220
140.7200     369
140.8000     157
140.8800     199
140.9600     269
141.0400     225
141.1200     260
141.2000     220
141.2800     276
141.3600     285
141.4400     246
141.5200     273
141.6000     172
141.6800     226
141.7600     210
141.8400     226
141.9200     255
142.0000     337
142.0800     249
142.1600     240
142.2400     251
142.3200     236
142.4000     304
142.4800     418
142.5600     344
142.6400     287
142.7200     262
142.8000     282
142.8800     334
142.9600     333
143.0400     273
143.1200     254
143.2000     286
143.2800     351
143.3600     274
143.4400     292
143.5200     381
143.6000     257
143.6800     242
143.7600     270
143.8400     298
143.9200     321
144.0000     381
144.0800     296
144.1600     347
144.2400     324
144.3200     227
144.4000     329
144.4800     360
144.5600     245
144.6400     340
144.7200     264
144.8000     309
144.8800     331
144.9600     335
145.0400     310
145.1200     297
145.2000     269
145.2800     339
145.3600     334
145.4400     351
145.5200     347
145.6000     162
145.6800     267
145.7600     264
145.8400     264
145.9200     358
146.0000     303
146.0800     223
146.1600     298
146.2400     209
146.3200     208
146.4000     336
146.4800     338
146.5600     320
146.6400     376
146.7200     268
146.8000     418
146.8800     305
146.9600     264
147.0400     333
147.1200     295
147.2000     282
147.2800     289
147.3600     305
147.4400     458
147.5200     360
147.6000     400
147.6800     327
147.7600     420
147.8400     317
147.9200     324
148.0000     312
148.0800     367
148.1600     403
148.2400     317
148.3200     411
148.4000     375
148.4800     403
148.5600     368
148.6400     413
148.7200     424
148.8000     414
148.8800     313
148.9600     333
149.0400     415
149.1200     344
149.2000     396
149.2800     442
149.3600     372
149.4400     522
149.5200     387
149.6000     437
149.6800     363
149.7600     431
149.8400     376
149.9200     425
150.0000     469
150.0800     568
150.1600     509
150.2400     503
150.3200     439
150.4000     425
150.4800     499
150.5600     525
150.6400     435
150.7200     509
150.8000     517
150.8800     546
150.9600     459
151.0400     436
151.1200     562
151.2000     667
151.2800     603
151.3600     600
151.4400     656
151.5200     643
151.6000     630
151.6800     728
151.7600     668
151.8400     847
151.9200     885
152.0000     849
152.0800     927
152.1600     788
152.2400     899
152.3200    1012
152.4000     921
152.4800    1010
152.5600    1228
152.6400    1239
152.7200    1228
152.8000    1439
152.8800    1559
152.9600    1485
153.0400    1523
153.1200    1530
153.2000    1717
153.2800    1928
153.3600    1767
153.4400    1938
153.5200    2046
153.6000    2111
153.6800    2259
153.7600    2265
153.8400    2365
153.9200    2408
154.0000    2250
154.0800    2260
154.1600    2464
154.2400    2464
154.3200    2528
154.4000    2422
154.4800    2520
154.5600    2473
154.6400    2380
154.7200    2375
154.8000    2088
154.8800    2169
154.9600    2446
155.0400    2187
155.1200    2057
155.2000    1957
155.2800    1905
155.3600    1977
155.4400    1698
155.5200    1893
155.6000    1757
155.6800    1617
155.7600    1515
155.8400    1427
155.9200    1235
156.0000    1459
156.0800    1438
156.1600    1355
156.2400    1255
156.3200    1080
156.4000    1134
156.4800    1267
156.5600    1026
156.6400     980
156.7200     944
156.8000     840
156.8800     965
156.9600     823
157.0400     896
157.1200     674
157.2000     832
157.2800     669
157.3600     753
157.4400     624
157.5200     594
157.6000     656
157.6800     581
157.7600     751
157.8400     567
157.9200     603
158.0000     566
158.0800     532
158.1600     528
158.2400     596
158.3200     445
158.4000     559
158.4800     495
158.5600     499
158.6400     540
158.7200     490
158.8000     452
158.8800     548
158.9600     482
159.0400     391
159.1200     448
159.2000     411
159.2800     464
159.3600     337
159.4400     488
159.5200     473
159.6000     399
159.6800     432
159.7600     415
159.8400     448
159.9200     345
160.0000     361
160.0800     374
160.1600     338
160.2400     300
160.3200     334
160.4000     361
160.4800     375
160.5600     367
160.6400     289
160.7200     290
160.8000     347
160.8800     352
160.9600     305
161.0400     307
161.1200     331
161.2000     244
161.2800     299
161.3600     240
161.4400     307
161.5200     351
161.6000     327
161.6800     301
161.7600     430
161.8400     292
161.9200     230
161.9800     310