File: XRD_Tool/XRD_Tool/bin/Debug/LDA_sample_name_56789_Psi-0_20180623-125556.txt
138.0000     260
138.0800     179
138.1600     325
138.2400     260
138.3200     210
138.4000     288
138.4800     243
138.5600     232
138.6400     240
138.7200     241
138.8000     219
138.8800     266
138.9600     232
139.0400     200
139.1200     246
139.2000     291
139.2800     173
139.3600     284
139.4400     225
139.5200     237
139.6000     187
139.6800     312
139.7600     177
139.8400     326
139.9200     227
140.0000     144
140.0800     282
140.1600     231
140.2400     223
140.3200     171
140.4000     200
140.4800     199
140.5600     251
140.6400     228
140.7200     276
140.8000     269
140.8800     246
140.9600     241
141.0400     182
141.1200     163
141.2000     239
141.2800     297
141.3600     252
141.4400     199
141.5200     314
141.6000     266
141.6800     189
141.7600     236
141.8400     265
141.9200     350
142.0000     227
142.0800     164
142.1600     279
142.2400     273
142.3200     333
142.4000     309
142.4800     259
142.5600     268
142.6400     204
142.7200     283
142.8000     243
142.8800     324
142.9600     293
143.0400     355
143.1200     318
143.2000     267
143.2800     242
143.3600     350
143.4400     274
143.5200     216
143.6000     306
143.6800     281
143.7600     277
143.8400     270
143.9200     305
144.0000     307
144.0800     369
144.1600     298
144.2400     324
144.3200     282
144.4000     282
144.4800     188
144.5600     343
144.6400     347
144.7200     315
144.8000     297
144.8800     409
144.9600     324
145.0400     326
145.1200     262
145.2000     309
145.2800     232
145.3600     272
145.4400     237
145.5200     288
145.6000     396
145.6800     287
145.7600     369
145.8400     323
145.9200     258
146.0000     332
146.0800     292
146.1600     309
146.2400     333
146.3200     289
146.4000     214
146.4800     248
146.5600     370
146.6400     324
146.7200     275
146.8000     344
146.8800     391
146.9600     357
147.0400     247
147.1200     312
147.2000     339
147.2800     213
147.3600     377
147.4400     446
147.5200     304
147.6000     308
147.6800     397
147.7600     515
147.8400     348
147.9200     385
148.0000     347
148.0800     346
148.1600     391
148.2400     330
148.3200     332
148.4000     341
148.4800     411
148.5600     302
148.6400     370
148.7200     416
148.8000     324
148.8800     384
148.9600     444
149.0400     411
149.1200     341
149.2000     487
149.2800     360
149.3600     390
149.4400     382
149.5200     423
149.6000     449
149.6800     393
149.7600     327
149.8400     458
149.9200     614
150.0000     498
150.0800     440
150.1600     376
150.2400     431
150.3200     576
150.4000     519
150.4800     498
150.5600     516
150.6400     592
150.7200     652
150.8000     543
150.8800     602
150.9600     572
151.0400     637
151.1200     606
151.2000     679
151.2800     612
151.3600     773
151.4400     621
151.5200     709
151.6000     682
151.6800     735
151.7600     831
151.8400     823
151.9200     861
152.0000     990
152.0800     945
152.1600     919
152.2400    1011
152.3200     966
152.4000    1222
152.4800    1205
152.5600    1604
152.6400    1494
152.7200    1517
152.8000    1709
152.8800    1791
152.9600    1881
153.0400    1798
153.1200    1917
153.2000    2125
153.2800    2036
153.3600    2075
153.4400    2394
153.5200    2429
153.6000    2600
153.6800    2486
153.7600    2619
153.8400    2659
153.9200    2746
154.0000    2536
154.0800    2534
154.1600    2746
154.2400    2593
154.3200    2569
154.4000    2583
154.4800    2498
154.5600    2559
154.6400    2282
154.7200    2283
154.8000    2414
154.8800    2228
154.9600    2254
155.0400    2260
155.1200    1957
155.2000    2082
155.2800    1841
155.3600    1834
155.4400    1635
155.5200    1626
155.6000    1550
155.6800    1490
155.7600    1443
155.8400    1272
155.9200    1257
156.0000    1268
156.0800    1193
156.1600    1190
156.2400    1029
156.3200    1019
156.4000     945
156.4800     954
156.5600     962
156.6400     845
156.7200     808
156.8000     779
156.8800     776
156.9600     857
157.0400     697
157.1200     650
157.2000     638
157.2800     682
157.3600     677
157.4400     603
157.5200     428
157.6000     602
157.6800     567
157.7600     576
157.8400     596
157.9200     498
158.0000     502
158.0800     554
158.1600     528
158.2400     628
158.3200     538
158.4000     577
158.4800     502
158.5600     437
158.6400     400
158.7200     416
158.8000     535
158.8800     431
158.9600     471
159.0400     491
159.1200     405
159.2000     422
159.2800     409
159.3600     318
159.4400     426
159.5200     428
159.6000     391
159.6800     529
159.7600     360
159.8400     309
159.9200     372
160.0000     399
160.0800     514
160.1600     392
160.2400     401
160.3200     402
160.4000     411
160.4800     238
160.5600     454
160.6400     252
160.7200     295
160.8000     306
160.8800     337
160.9600     250
161.0400     302
161.1200     286
161.2000     232
161.2800     303
161.3600     252
161.4400     364
161.5200     331
161.6000     213
161.6800     304
161.7600     280
161.8400     339
161.9200     188
161.9800     299