File: XRD_Tool/XRD_Tool/bin/Debug/LDA_sample_name_56789_Psi-24_20180623-000243.txt
141.0000     258
141.0800     234
141.1600     141
141.2400     177
141.3200     174
141.4000     162
141.4800     160
141.5600     174
141.6400     262
141.7200     278
141.8000     175
141.8800     211
141.9600     220
142.0400     105
142.1200     190
142.2000     197
142.2800     219
142.3600     216
142.4400     208
142.5200     275
142.6000     265
142.6800     302
142.7600     130
142.8400     208
142.9200     184
143.0000     182
143.0800     187
143.1600     335
143.2400     199
143.3200     188
143.4000     225
143.4800     162
143.5600     315
143.6400     235
143.7200     185
143.8000     234
143.8800     252
143.9600     196
144.0400     186
144.1200     144
144.2000     166
144.2800     194
144.3600      91
144.4400     136
144.5200     258
144.6000     114
144.6800     224
144.7600     127
144.8400     202
144.9200     238
145.0000     239
145.0800     131
145.1600     201
145.2400     249
145.3200     317
145.4000     229
145.4800     311
145.5600     264
145.6400     275
145.7200     290
145.8000     230
145.8800     200
145.9600     298
146.0400     242
146.1200     274
146.2000     152
146.2800     297
146.3600     287
146.4400     276
146.5200     122
146.6000     215
146.6800     318
146.7600     293
146.8400     264
146.9200     151
147.0000     345
147.0800     228
147.1600     253
147.2400     349
147.3200     364
147.4000     343
147.4800     257
147.5600     294
147.6400     253
147.7200     209
147.8000     265
147.8800     278
147.9600     283
148.0400     267
148.1200     356
148.2000     320
148.2800     214
148.3600     225
148.4400     364
148.5200     166
148.6000     272
148.6800     287
148.7600     193
148.8400     345
148.9200     268
149.0000     343
149.0800     309
149.1600     274
149.2400     299
149.3200     306
149.4000     286
149.4800     336
149.5600     300
149.6400     382
149.7200     349
149.8000     418
149.8800     405
149.9600     405
150.0400     388
150.1200     491
150.2000     414
150.2800     388
150.3600     419
150.4400     494
150.5200     402
150.6000     431
150.6800     518
150.7600     600
150.8400     498
150.9200     508
151.0000     528
151.0800     596
151.1600     483
151.2400     533
151.3200     621
151.4000     611
151.4800     637
151.5600     773
151.6400     601
151.7200     767
151.8000     837
151.8800     621
151.9600     719
152.0400     739
152.1200     712
152.2000     926
152.2800     897
152.3600    1023
152.4400    1007
152.5200    1041
152.6000    1112
152.6800    1217
152.7600    1191
152.8400    1281
152.9200    1507
153.0000    1496
153.0800    1691
153.1600    1616
153.2400    1749
153.3200    1797
153.4000    1905
153.4800    1946
153.5600    2162
153.6400    2042
153.7200    2314
153.8000    2211
153.8800    2318
153.9600    2360
154.0400    2234
154.1200    2535
154.2000    2559
154.2800    2405
154.3600    2466
154.4400    2485
154.5200    2442
154.6000    2482
154.6800    2553
154.7600    2453
154.8400    2240
154.9200    2235
155.0000    2139
155.0800    2102
155.1600    1986
155.2400    1875
155.3200    1777
155.4000    1876
155.4800    1748
155.5600    1834
155.6400    1830
155.7200    1808
155.8000    1506
155.8800    1489
155.9600    1515
156.0400    1389
156.1200    1328
156.2000    1216
156.2800    1107
156.3600    1041
156.4400    1097
156.5200    1023
156.6000    1001
156.6800     865
156.7600     891
156.8400     944
156.9200     767
157.0000     895
157.0800     751
157.1600     719
157.2400     691
157.3200     709
157.4000     638
157.4800     628
157.5600     642
157.6400     554
157.7200     644
157.8000     495
157.8800     560
157.9600     412
158.0400     497
158.1200     609
158.2000     483
158.2800     551
158.3600     431
158.4400     505
158.5200     429
158.6000     486
158.6800     399
158.7600     447
158.8400     447
158.9200     449
159.0000     380
159.0800     352
159.1600     384
159.2400     402
159.3200     339
159.4000     390
159.4800     419
159.5600     312
159.6400     405
159.7200     377
159.8000     371
159.8800     344
159.9600     348
160.0400     377
160.1200     346
160.2000     241
160.2800     231
160.3600     319
160.4400     366
160.5200     214
160.6000     355
160.6800     321
160.7600     413
160.8400     309
160.9200     308
161.0000     301
161.0800     301
161.1600     294
161.2400     308
161.3200     201
161.4000     316
161.4800     310
161.5600     330
161.6400     277
161.7200     225
161.8000     269
161.8800     212
161.9600     281
162.0400     332
162.1200     316
162.2000     239
162.2800     234
162.3600     291
162.4400     286
162.5200     303
162.6000     220
162.6800     197
162.7600     213
162.8400     250
162.9200     243
163.0000     257
163.0800     281
163.1600     240
163.2400     181
163.3200     212
163.4000     319
163.4800     331
163.5600      79
163.6400     216
163.7200     211
163.8000     272
163.8800     267
163.9600     117
164.0400     208
164.1200     215
164.2000     235
164.2800     198
164.3600     181
164.4400     298
164.5200     190
164.6000     132
164.6800     136
164.7600     261
164.8400     165
164.9200     209
164.9800     127