File: XRD_Tool/XRD_Tool/bin/Debug/LDA_sample_name_56789_Psi-0_20180622-205646.txt
127.2000     -11
127.2800       9
127.3600      77
127.4400      18
127.5200      34
127.6000      16
127.6800     -11
127.7600      58
127.8400      21
127.9200       0
128.0000      -7
128.0800       6
128.1600      -5
128.2400      -8
128.3200      -1
128.4000      17
128.4800      40
128.5600      16
128.6400      37
128.7200     -34
128.8000      78
128.8800       0
128.9600      24
129.0400      18
129.1200      21
129.2000      15
129.2800       4
129.3600      15
129.4400     -16
129.5200      11
129.6000       3
129.6800      41
129.7600       5
129.8400      65
129.9200      23
130.0000      23
130.0800      38
130.1600      34
130.2400      24
130.3200      18
130.4000      33
130.4800     -12
130.5600      43
130.6400     -26
130.7200      10
130.8000      -3
130.8800      21
130.9600      53
131.0400       5
131.1200      37
131.2000      -7
131.2800      54
131.3600      43
131.4400      27
131.5200      20
131.6000      43
131.6800       0
131.7600      63
131.8400      15
131.9200     -21
132.0000      27
132.0800       0
132.1600      -2
132.2400       9
132.3200      17
132.4000      26
132.4800      25
132.5600      10
132.6400      58
132.7200      23
132.8000      17
132.8800      27
132.9600      73
133.0400      36
133.1200      15
133.2000       3
133.2800      89
133.3600      16
133.4400      14
133.5200      19
133.6000      51
133.6800      35
133.7600      24
133.8400       7
133.9200      14
134.0000      29
134.0800      18
134.1600      10
134.2400       5
134.3200      -4
134.4000      20
134.4800      47
134.5600      -7
134.6400      -4
134.7200      24
134.8000      28
134.8800      20
134.9600      35
135.0400      57
135.1200      29
135.2000      50
135.2800      -5
135.3600      33
135.4400       8
135.5200      35
135.6000      14
135.6800       8
135.7600      15
135.8400       2
135.9200      18
136.0000       9
136.0800      28
136.1600      40
136.2400      24
136.3200      79
136.4000      34
136.4800      56
136.5600      -2
136.6400      38
136.7200      36
136.8000      29
136.8800      57
136.9600      72
137.0400      16
137.1200      47
137.2000       8
137.2800      18
137.3600      17
137.4400      26
137.5200      11
137.6000      56
137.6800      41
137.7600      35
137.8400      14
137.9200      24
138.0000      13
138.0800      23
138.1600      30
138.2400      16
138.3200      64
138.4000       0
138.4800      -3
138.5600      32
138.6400      17
138.7200      62
138.8000      33
138.8800       9
138.9600      63
139.0400      12
139.1200      64
139.2000      47
139.2800      34
139.3600      15
139.4400       0
139.5200       0
139.6000     -15
139.6800      11
139.7600      26
139.8400      21
139.9200      17
140.0000      45
140.0800       8
140.1600      44
140.2400      49
140.3200      32
140.4000      -8
140.4800      -1
140.5600      -4
140.6400      30
140.7200      18
140.8000      13
140.8800      21
140.9600      62
141.0400      21
141.1200      36
141.2000      44
141.2800      36
141.3600      71
141.4400       5
141.5200      20
141.6000      60
141.6800       6
141.7600      -1
141.8400      27
141.9200     -13
142.0000       0
142.0800      35
142.1600      30
142.2400      22
142.3200       5
142.4000      44
142.4800       3
142.5600      -6
142.6400       0
142.7200      53
142.8000      15
142.8800      66
142.9600      10
143.0400      18
143.1200       7
143.2000      36
143.2800      17
143.3600      30
143.4400      54
143.5200      46
143.6000      -5
143.6800      56
143.7600      15
143.8400       1
143.9200      20
144.0000     -12
144.0800      41
144.1600      35
144.2400      37
144.3200      39
144.4000      92
144.4800      40
144.5600      54
144.6400      27
144.7200      21
144.8000      14
144.8800      55
144.9600      12
145.0400       3
145.1200       0
145.2000      17
145.2800      55
145.3600      45
145.4400      39
145.5200      25
145.6000      44
145.6800      64
145.7600      28
145.8400      71
145.9200      53
146.0000       5
146.0800       1
146.1600      55
146.2400       7
146.3200     -11
146.4000      11
146.4800      54
146.5600      27
146.6400      30
146.7200      25
146.8000      28
146.8800     -17
146.9600      58
147.0400      35
147.1200      44
147.2000      19
147.2800      26
147.3600      34
147.4400      -2
147.5200      23
147.6000       7
147.6800       8
147.7600      17
147.8400       0
147.9200      24
148.0000      36
148.0800      49
148.1600      22
148.2400      16
148.3200      38
148.4000      67
148.4800      43
148.5600      17
148.6400      25
148.7200      39
148.8000      33
148.8800      28
148.9600      33
149.0400      26
149.1200     -19
149.2000      63
149.2800      11
149.3600      53
149.4400       6
149.5200      38
149.6000      66
149.6800      21
149.7600      21
149.8400      39
149.9200      17
150.0000      72
150.0800      35
150.1600       0
150.2400      51
150.3200      24
150.4000      82
150.4800      36
150.5600      54
150.6400      59
150.7200      -3
150.8000      10
150.8800      92
150.9600      41
151.0400      62
151.1200      82
151.1600      54