File: XRD_Tool/XRD_Tool/bin/Debug/LDA_sample_name_56789_Psi-0_20180623-122735.txt
138.0000     277
138.0800     178
138.1600     197
138.2400     270
138.3200     194
138.4000     195
138.4800     288
138.5600     308
138.6400     263
138.7200     178
138.8000     237
138.8800     192
138.9600     169
139.0400     193
139.1200     272
139.2000     208
139.2800     345
139.3600     211
139.4400     297
139.5200     284
139.6000     182
139.6800     196
139.7600     309
139.8400     214
139.9200     221
140.0000     281
140.0800     244
140.1600     288
140.2400     237
140.3200     261
140.4000     307
140.4800     254
140.5600     373
140.6400     281
140.7200     254
140.8000     258
140.8800     309
140.9600     273
141.0400     286
141.1200     267
141.2000     387
141.2800     188
141.3600     319
141.4400     302
141.5200     272
141.6000     215
141.6800     286
141.7600     146
141.8400     262
141.9200     239
142.0000     246
142.0800     218
142.1600     281
142.2400     315
142.3200     365
142.4000     343
142.4800     340
142.5600     284
142.6400     334
142.7200     194
142.8000     297
142.8800     325
142.9600     320
143.0400     351
143.1200     260
143.2000     324
143.2800     323
143.3600     341
143.4400     296
143.5200     256
143.6000     221
143.6800     295
143.7600     342
143.8400     360
143.9200     274
144.0000     387
144.0800     300
144.1600     356
144.2400     344
144.3200     248
144.4000     336
144.4800     352
144.5600     275
144.6400     409
144.7200     425
144.8000     275
144.8800     307
144.9600     252
145.0400     275
145.1200     191
145.2000     346
145.2800     339
145.3600     378
145.4400     319
145.5200     376
145.6000     384
145.6800     356
145.7600     326
145.8400     397
145.9200     278
146.0000     269
146.0800     292
146.1600     394
146.2400     289
146.3200     211
146.4000     307
146.4800     324
146.5600     306
146.6400     317
146.7200     356
146.8000     287
146.8800     371
146.9600     394
147.0400     229
147.1200     345
147.2000     367
147.2800     270
147.3600     305
147.4400     313
147.5200     313
147.6000     270
147.6800     298
147.7600     319
147.8400     369
147.9200     341
148.0000     290
148.0800     382
148.1600     442
148.2400     514
148.3200     433
148.4000     316
148.4800     436
148.5600     405
148.6400     453
148.7200     343
148.8000     284
148.8800     422
148.9600     439
149.0400     382
149.1200     379
149.2000     438
149.2800     475
149.3600     440
149.4400     458
149.5200     484
149.6000     474
149.6800     475
149.7600     490
149.8400     490
149.9200     484
150.0000     459
150.0800     533
150.1600     418
150.2400     469
150.3200     533
150.4000     522
150.4800     548
150.5600     521
150.6400     504
150.7200     607
150.8000     470
150.8800     638
150.9600     559
151.0400     592
151.1200     601
151.2000     721
151.2800     608
151.3600     686
151.4400     742
151.5200     779
151.6000     665
151.6800     759
151.7600     856
151.8400     909
151.9200     941
152.0000     992
152.0800    1025
152.1600    1008
152.2400     993
152.3200    1097
152.4000    1161
152.4800    1132
152.5600    1550
152.6400    1501
152.7200    1504
152.8000    1591
152.8800    1684
152.9600    1836
153.0400    1732
153.1200    1840
153.2000    2124
153.2800    2108
153.3600    2126
153.4400    2319
153.5200    2189
153.6000    2537
153.6800    2570
153.7600    2727
153.8400    2613
153.9200    2537
154.0000    2512
154.0800    2590
154.1600    2681
154.2400    2506
154.3200    2482
154.4000    2450
154.4800    2502
154.5600    2615
154.6400    2428
154.7200    2416
154.8000    2166
154.8800    2172
154.9600    2247
155.0400    2110
155.1200    1893
155.2000    1791
155.2800    1747
155.3600    1828
155.4400    1642
155.5200    1732
155.6000    1516
155.6800    1376
155.7600    1390
155.8400    1403
155.9200    1304
156.0000    1265
156.0800    1179
156.1600    1093
156.2400     953
156.3200     995
156.4000     932
156.4800    1045
156.5600     950
156.6400     823
156.7200     816
156.8000     803
156.8800     774
156.9600     797
157.0400     677
157.1200     700
157.2000     653
157.2800     705
157.3600     657
157.4400     603
157.5200     602
157.6000     542
157.6800     643
157.7600     576
157.8400     596
157.9200     654
158.0000     548
158.0800     576
158.1600     492
158.2400     570
158.3200     458
158.4000     583
158.4800     413
158.5600     410
158.6400     552
158.7200     453
158.8000     475
158.8800     477
158.9600     407
159.0400     410
159.1200     407
159.2000     465
159.2800     391
159.3600     418
159.4400     488
159.5200     368
159.6000     433
159.6800     460
159.7600     415
159.8400     320
159.9200     355
160.0000     288
160.0800     420
160.1600     331
160.2400     416
160.3200     346
160.4000     404
160.4800     314
160.5600     464
160.6400     277
160.7200     354
160.8000     336
160.8800     333
160.9600     380
161.0400     331
161.1200     302
161.2000     338
161.2800     325
161.3600     402
161.4400     320
161.5200     319
161.6000     227
161.6800     342
161.7600     401
161.8400     211
161.9200     215
161.9800     242