File: XRD_Tool/XRD_Tool/bin/Debug/LDA_sample_name_56789_Psi-15_20180622-213809.txt
137.2000     344
137.2800     190
137.3600     279
137.4400     327
137.5200     179
137.6000     329
137.6800     273
137.7600     202
137.8400     259
137.9200     251
138.0000     282
138.0800     228
138.1600     274
138.2400     199
138.3200     238
138.4000     251
138.4800     302
138.5600     281
138.6400     285
138.7200     266
138.8000     181
138.8800     327
138.9600     228
139.0400     180
139.1200     261
139.2000     231
139.2800     237
139.3600     276
139.4400     320
139.5200     251
139.6000     278
139.6800     187
139.7600     317
139.8400     246
139.9200     206
140.0000     300
140.0800     274
140.1600     277
140.2400     186
140.3200     330
140.4000     351
140.4800     260
140.5600     347
140.6400     294
140.7200     283
140.8000     185
140.8800     290
140.9600     212
141.0400     245
141.1200     273
141.2000     291
141.2800     232
141.3600     271
141.4400     319
141.5200     332
141.6000     338
141.6800     306
141.7600     231
141.8400     350
141.9200     253
142.0000     316
142.0800     304
142.1600     255
142.2400     260
142.3200     263
142.4000     179
142.4800     325
142.5600     276
142.6400     261
142.7200     338
142.8000     269
142.8800     410
142.9600     287
143.0400     191
143.1200     301
143.2000     434
143.2800     339
143.3600     370
143.4400     289
143.5200     374
143.6000     332
143.6800     414
143.7600     198
143.8400     300
143.9200     318
144.0000     379
144.0800     307
144.1600     318
144.2400     292
144.3200     294
144.4000     316
144.4800     401
144.5600     436
144.6400     374
144.7200     274
144.8000     349
144.8800     318
144.9600     272
145.0400     240
145.1200     365
145.2000     368
145.2800     268
145.3600     313
145.4400     215
145.5200     257
145.6000     394
145.6800     268
145.7600     258
145.8400     308
145.9200     335
146.0000     288
146.0800     384
146.1600     302
146.2400     384
146.3200     309
146.4000     335
146.4800     385
146.5600     347
146.6400     290
146.7200     421
146.8000     342
146.8800     381
146.9600     488
147.0400     394
147.1200     360
147.2000     366
147.2800     365
147.3600     373
147.4400     418
147.5200     366
147.6000     439
147.6800     276
147.7600     347
147.8400     483
147.9200     480
148.0000     381
148.0800     461
148.1600     419
148.2400     400
148.3200     355
148.4000     395
148.4800     404
148.5600     427
148.6400     343
148.7200     450
148.8000     504
148.8800     473
148.9600     523
149.0400     433
149.1200     389
149.2000     483
149.2800     467
149.3600     446
149.4400     511
149.5200     491
149.6000     481
149.6800     555
149.7600     530
149.8400     578
149.9200     648
150.0000     492
150.0800     611
150.1600     641
150.2400     554
150.3200     601
150.4000     575
150.4800     719
150.5600     733
150.6400     752
150.7200     722
150.8000     808
150.8800     863
150.9600     662
151.0400     808
151.1200     921
151.2000    1028
151.2800     902
151.3600     943
151.4400    1177
151.5200    1178
151.6000    1071
151.6800    1169
151.7600    1280
151.8400    1356
151.9200    1586
152.0000    1447
152.0800    1748
152.1600    1847
152.2400    1854
152.3200    1796
152.4000    2028
152.4800    2032
152.5600    2181
152.6400    2178
152.7200    2161
152.8000    2489
152.8800    2366
152.9600    2640
153.0400    2500
153.1200    2638
153.2000    2554
153.2800    2542
153.3600    2696
153.4400    2643
153.5200    2660
153.6000    2648
153.6800    2746
153.7600    2640
153.8400    2459
153.9200    2476
154.0000    2415
154.0800    2175
154.1600    2398
154.2400    2187
154.3200    2338
154.4000    2046
154.4800    2043
154.5600    1884
154.6400    1725
154.7200    1831
154.8000    1566
154.8800    1543
154.9600    1594
155.0400    1441
155.1200    1359
155.2000    1408
155.2800    1297
155.3600    1315
155.4400    1214
155.5200    1124
155.6000    1000
155.6800    1066
155.7600    1047
155.8400     913
155.9200     826
156.0000     757
156.0800     737
156.1600     755
156.2400     755
156.3200     864
156.4000     609
156.4800     689
156.5600     647
156.6400     705
156.7200     712
156.8000     608
156.8800     735
156.9600     637
157.0400     585
157.1200     650
157.2000     538
157.2800     616
157.3600     485
157.4400     495
157.5200     544
157.6000     497
157.6800     497
157.7600     598
157.8400     379
157.9200     420
158.0000     381
158.0800     516
158.1600     499
158.2400     532
158.3200     363
158.4000     471
158.4800     474
158.5600     474
158.6400     475
158.7200     498
158.8000     439
158.8800     349
158.9600     442
159.0400     410
159.1200     332
159.2000     418
159.2800     377
159.3600     433
159.4400     393
159.5200     370
159.6000     393
159.6800     350
159.7600     263
159.8400     374
159.9200     375
160.0000     285
160.0800     335
160.1600     298
160.2400     348
160.3200     268
160.4000     292
160.4800     359
160.5600     303
160.6400     341
160.7200     303
160.8000     284
160.8800     304
160.9600     314
161.0400     281
161.1200     341
161.1800     308