File: XRD_Tool/XRD_Tool/bin/Debug/LDA_sample_name_56789_Psi-0_20180623-123813.txt
138.0000     282
138.0800     231
138.1600     155
138.2400     323
138.3200     252
138.4000     213
138.4800     245
138.5600     237
138.6400     150
138.7200     229
138.8000     200
138.8800     160
138.9600     316
139.0400     141
139.1200     181
139.2000     249
139.2800     141
139.3600     224
139.4400     241
139.5200     131
139.6000     239
139.6800     254
139.7600     233
139.8400     192
139.9200     242
140.0000     194
140.0800     221
140.1600     205
140.2400     352
140.3200     235
140.4000     119
140.4800     263
140.5600     218
140.6400     224
140.7200     342
140.8000     223
140.8800     216
140.9600     310
141.0400     201
141.1200     117
141.2000     236
141.2800     259
141.3600     320
141.4400     236
141.5200     336
141.6000     227
141.6800     379
141.7600     233
141.8400     193
141.9200     332
142.0000     275
142.0800     246
142.1600     204
142.2400     162
142.3200     223
142.4000     289
142.4800     293
142.5600     267
142.6400     195
142.7200     245
142.8000     341
142.8800     253
142.9600     279
143.0400     293
143.1200     279
143.2000     276
143.2800     336
143.3600     278
143.4400     283
143.5200     310
143.6000     232
143.6800     311
143.7600     389
143.8400     335
143.9200     340
144.0000     295
144.0800     316
144.1600     298
144.2400     382
144.3200     361
144.4000     331
144.4800     317
144.5600     238
144.6400     287
144.7200     307
144.8000     375
144.8800     265
144.9600     319
145.0400     271
145.1200     297
145.2000     277
145.2800     302
145.3600     270
145.4400     233
145.5200     256
145.6000     328
145.6800     274
145.7600     294
145.8400     282
145.9200     325
146.0000     361
146.0800     323
146.1600     217
146.2400     302
146.3200     388
146.4000     266
146.4800     386
146.5600     294
146.6400     351
146.7200     318
146.8000     313
146.8800     331
146.9600     363
147.0400     298
147.1200     271
147.2000     268
147.2800     339
147.3600     363
147.4400     358
147.5200     375
147.6000     384
147.6800     406
147.7600     424
147.8400     357
147.9200     347
148.0000     402
148.0800     347
148.1600     404
148.2400     419
148.3200     415
148.4000     324
148.4800     433
148.5600     420
148.6400     398
148.7200     384
148.8000     363
148.8800     410
148.9600     320
149.0400     353
149.1200     429
149.2000     408
149.2800     349
149.3600     356
149.4400     400
149.5200     354
149.6000     395
149.6800     450
149.7600     403
149.8400     432
149.9200     473
150.0000     516
150.0800     442
150.1600     459
150.2400     554
150.3200     444
150.4000     521
150.4800     649
150.5600     505
150.6400     474
150.7200     508
150.8000     518
150.8800     447
150.9600     514
151.0400     617
151.1200     452
151.2000     610
151.2800     675
151.3600     655
151.4400     652
151.5200     641
151.6000     765
151.6800     716
151.7600     666
151.8400     871
151.9200     936
152.0000     982
152.0800    1022
152.1600    1004
152.2400     980
152.3200    1159
152.4000    1160
152.4800    1258
152.5600    1388
152.6400    1322
152.7200    1589
152.8000    1653
152.8800    1763
152.9600    1882
153.0400    1794
153.1200    1887
153.2000    2013
153.2800    2125
153.3600    2369
153.4400    2260
153.5200    2347
153.6000    2475
153.6800    2442
153.7600    2522
153.8400    2731
153.9200    2687
154.0000    2531
154.0800    2574
154.1600    2778
154.2400    2570
154.3200    2506
154.4000    2553
154.4800    2279
154.5600    2436
154.6400    2340
154.7200    2318
154.8000    2159
154.8800    2283
154.9600    2351
155.0400    2208
155.1200    2023
155.2000    1863
155.2800    1724
155.3600    1644
155.4400    1693
155.5200    1672
155.6000    1491
155.6800    1344
155.7600    1424
155.8400    1379
155.9200    1207
156.0000    1103
156.0800    1299
156.1600    1177
156.2400     981
156.3200     991
156.4000     889
156.4800    1007
156.5600     931
156.6400     966
156.7200     721
156.8000     809
156.8800     732
156.9600     675
157.0400     735
157.1200     602
157.2000     633
157.2800     678
157.3600     525
157.4400     570
157.5200     497
157.6000     681
157.6800     415
157.7600     597
157.8400     556
157.9200     594
158.0000     568
158.0800     564
158.1600     439
158.2400     531
158.3200     430
158.4000     425
158.4800     436
158.5600     547
158.6400     388
158.7200     584
158.8000     527
158.8800     369
158.9600     468
159.0400     368
159.1200     321
159.2000     515
159.2800     442
159.3600     399
159.4400     388
159.5200     410
159.6000     362
159.6800     381
159.7600     294
159.8400     350
159.9200     409
160.0000     386
160.0800     356
160.1600     339
160.2400     357
160.3200     414
160.4000     370
160.4800     300
160.5600     332
160.6400     288
160.7200     305
160.8000     255
160.8800     347
160.9600     303
161.0400     390
161.1200     302
161.2000     372
161.2800     278
161.3600     377
161.4400     299
161.5200     207
161.6000     304
161.6800     273
161.7600     212
161.8400     332
161.9200     299
161.9800     271