File: XRD_Tool/XRD_Tool/bin/Debug/LDA_sample_name_56789_Psi-45_20180603-122850.txt
128.0000     261
128.0800     260
128.1600     239
128.2400     224
128.3200     259
128.4000     246
128.4800     254
128.5600     253
128.6400     219
128.7200     253
128.8000     301
128.8800     248
128.9600     277
129.0400     235
129.1200     272
129.2000     263
129.2800     251
129.3600     251
129.4400     245
129.5200     265
129.6000     256
129.6800     228
129.7600     241
129.8400     274
129.9200     234
130.0000     269
130.0800     228
130.1600     270
130.2400     257
130.3200     259
130.4000     248
130.4800     247
130.5600     263
130.6400     256
130.7200     238
130.8000     238
130.8800     247
130.9600     250
131.0400     218
131.1200     258
131.2000     262
131.2800     244
131.3600     237
131.4400     242
131.5200     249
131.6000     284
131.6800     271
131.7600     264
131.8400     272
131.9200     252
132.0000     264
132.0800     258
132.1600     293
132.2400     279
132.3200     247
132.4000     282
132.4800     267
132.5600     276
132.6400     272
132.7200     294
132.8000     273
132.8800     296
132.9600     243
133.0400     267
133.1200     263
133.2000     278
133.2800     272
133.3600     250
133.4400     261
133.5200     258
133.6000     275
133.6800     252
133.7600     257
133.8400     286
133.9200     260
134.0000     249
134.0800     304
134.1600     235
134.2400     277
134.3200     284
134.4000     265
134.4800     289
134.5600     278
134.6400     254
134.7200     267
134.8000     238
134.8800     288
134.9600     265
135.0400     256
135.1200     254
135.2000     280
135.2800     271
135.3600     250
135.4400     294
135.5200     254
135.6000     281
135.6800     237
135.7600     276
135.8400     248
135.9200     268
136.0000     263
136.0800     293
136.1600     256
136.2400     268
136.3200     243
136.4000     276
136.4800     278
136.5600     270
136.6400     247
136.7200     271
136.8000     258
136.8800     257
136.9600     259
137.0400     263
137.1200     248
137.2000     279
137.2800     253
137.3600     285
137.4400     277
137.5200     287
137.6000     266
137.6800     279
137.7600     276
137.8400     252
137.9200     292
138.0000     298
138.0800     269
138.1600     282
138.2400     253
138.3200     273
138.4000     269
138.4800     292
138.5600     275
138.6400     297
138.7200     269
138.8000     279
138.8800     295
138.9600     248
139.0400     267
139.1200     282
139.2000     289
139.2800     253
139.3600     241
139.4400     252
139.5200     253
139.6000     259
139.6800     280
139.7600     290
139.8400     299
139.9200     256
140.0000     247
140.0800     263
140.1600     282
140.2400     290
140.3200     270
140.4000     304
140.4800     278
140.5600     265
140.6400     290
140.7200     263
140.8000     296
140.8800     297
140.9600     254
141.0400     279
141.1200     271
141.2000     281
141.2800     289
141.3600     282
141.4400     250
141.5200     278
141.6000     268
141.6800     272
141.7600     259
141.8400     284
141.9200     268
142.0000     290
142.0800     271
142.1600     274
142.2400     281
142.3200     242
142.4000     283
142.4800     300
142.5600     257
142.6400     258
142.7200     251
142.8000     260
142.8800     277
142.9600     281
143.0400     293
143.1200     288
143.2000     264
143.2800     282
143.3600     269
143.4400     272
143.5200     290
143.6000     282
143.6800     287
143.7600     264
143.8400     290
143.9200     279
144.0000     254
144.0800     268
144.1600     258
144.2400     259
144.3200     274
144.4000     261
144.4800     286
144.5600     247
144.6400     287
144.7200     272
144.8000     289
144.8800     250
144.9600     259
145.0400     244
145.1200     272
145.2000     274
145.2800     283
145.3600     295
145.4400     228
145.5200     276
145.6000     295
145.6800     264
145.7600     282
145.8400     263
145.9200     274
146.0000     265
146.0800     278
146.1600     274
146.2400     257
146.3200     274
146.4000     269
146.4800     258
146.5600     274
146.6400     290
146.7200     279
146.8000     298
146.8800     300
146.9600     269
147.0400     261
147.1200     282
147.2000     269
147.2800     264
147.3600     291
147.4400     247
147.5200     289
147.6000     247
147.6800     257
147.7600     262
147.8400     235
147.9200     303
148.0000     305
148.0800     286
148.1600     304
148.2400     284
148.3200     255
148.4000     228
148.4800     276
148.5600     283
148.6400     308
148.7200     271
148.8000     271
148.8800     288
148.9600     259
149.0400     288
149.1200     298
149.2000     284
149.2800     284
149.3600     303
149.4400     248
149.5200     302
149.6000     284
149.6800     280
149.7600     289
149.8400     274
149.9200     258
150.0000     257
150.0800     265
150.1600     282
150.2400     274
150.3200     295
150.4000     268
150.4800     286
150.5600     270
150.6400     266
150.7200     257
150.8000     279
150.8800     300
150.9600     261
151.0400     255
151.1200     268
151.2000     281
151.2800     277
151.3600     279
151.4400     276
151.5200     283
151.6000     278
151.6800     303
151.7600     269
151.8400     320
151.9200     293
151.9600     282