File: XRD_Tool/XRD_Tool/bin/Debug/LDA_sample_name_56789_Psi-0_20180622-214022.txt
137.2000    1280
137.2800    1194
137.3600    1145
137.4400    1246
137.5200    1201
137.6000    1157
137.6800    1231
137.7600    1211
137.8400    1104
137.9200    1197
138.0000    1185
138.0800    1233
138.1600    1074
138.2400    1166
138.3200    1203
138.4000    1271
138.4800    1130
138.5600    1187
138.6400    1235
138.7200    1268
138.8000    1194
138.8800    1305
138.9600    1301
139.0400    1118
139.1200    1068
139.2000    1145
139.2800    1170
139.3600    1182
139.4400    1276
139.5200    1160
139.6000    1236
139.6800    1124
139.7600    1158
139.8400    1140
139.9200    1188
140.0000    1188
140.0800    1220
140.1600    1196
140.2400    1178
140.3200    1273
140.4000    1142
140.4800    1164
140.5600    1213
140.6400    1177
140.7200    1183
140.8000    1175
140.8800    1142
140.9600    1202
141.0400    1204
141.1200    1142
141.2000    1152
141.2800    1270
141.3600    1119
141.4400    1169
141.5200    1304
141.6000    1222
141.6800    1219
141.7600    1293
141.8400    1262
141.9200    1283
142.0000    1359
142.0800    1283
142.1600    1315
142.2400    1306
142.3200    1278
142.4000    1279
142.4800    1278
142.5600    1340
142.6400    1247
142.7200    1288
142.8000    1255
142.8800    1265
142.9600    1265
143.0400    1277
143.1200    1301
143.2000    1310
143.2800    1315
143.3600    1269
143.4400    1333
143.5200    1318
143.6000    1258
143.6800    1220
143.7600    1248
143.8400    1284
143.9200    1305
144.0000    1348
144.0800    1247
144.1600    1279
144.2400    1252
144.3200    1316
144.4000    1341
144.4800    1267
144.5600    1293
144.6400    1342
144.7200    1244
144.8000    1229
144.8800    1293
144.9600    1221
145.0400    1260
145.1200    1262
145.2000    1215
145.2800    1260
145.3600    1360
145.4400    1301
145.5200    1234
145.6000    1287
145.6800    1183
145.7600    1245
145.8400    1219
145.9200    1340
146.0000    1303
146.0800    1278
146.1600    1399
146.2400    1334
146.3200    1247
146.4000    1132
146.4800    1269
146.5600    1378
146.6400    1376
146.7200    1274
146.8000    1319
146.8800    1349
146.9600    1444
147.0400    1439
147.1200    1414
147.2000    1316
147.2800    1243
147.3600    1326
147.4400    1281
147.5200    1350
147.6000    1417
147.6800    1346
147.7600    1347
147.8400    1349
147.9200    1394
148.0000    1395
148.0800    1306
148.1600    1397
148.2400    1386
148.3200    1316
148.4000    1440
148.4800    1389
148.5600    1304
148.6400    1386
148.7200    1323
148.8000    1479
148.8800    1533
148.9600    1424
149.0400    1474
149.1200    1410
149.2000    1419
149.2800    1371
149.3600    1487
149.4400    1409
149.5200    1448
149.6000    1477
149.6800    1583
149.7600    1470
149.8400    1518
149.9200    1557
150.0000    1577
150.0800    1496
150.1600    1530
150.2400    1545
150.3200    1536
150.4000    1689
150.4800    1630
150.5600    1732
150.6400    1788
150.7200    1666
150.8000    1731
150.8800    1801
150.9600    1777
151.0400    1827
151.1200    1820
151.2000    1915
151.2800    1864
151.3600    2139
151.4400    1864
151.5200    2248
151.6000    2116
151.6800    2179
151.7600    2429
151.8400    2434
151.9200    2542
152.0000    2724
152.0800    2727
152.1600    2665
152.2400    2883
152.3200    2928
152.4000    3026
152.4800    2993
152.5600    3102
152.6400    3353
152.7200    3372
152.8000    3529
152.8800    3657
152.9600    3621
153.0400    3595
153.1200    3558
153.2000    3567
153.2800    3548
153.3600    3488
153.4400    3612
153.5200    3584
153.6000    3699
153.6800    3613
153.7600    3548
153.8400    3322
153.9200    3338
154.0000    3343
154.0800    3215
154.1600    3242
154.2400    3119
154.3200    3071
154.4000    2771
154.4800    2722
154.5600    2825
154.6400    2682
154.7200    2688
154.8000    2562
154.8800    2570
154.9600    2471
155.0400    2307
155.1200    2165
155.2000    2097
155.2800    2122
155.3600    2215
155.4400    2147
155.5200    2142
155.6000    2029
155.6800    1937
155.7600    1892
155.8400    1914
155.9200    1754
156.0000    1712
156.0800    1808
156.1600    1798
156.2400    1714
156.3200    1647
156.4000    1605
156.4800    1576
156.5600    1679
156.6400    1518
156.7200    1608
156.8000    1526
156.8800    1606
156.9600    1573
157.0400    1606
157.1200    1581
157.2000    1565
157.2800    1487
157.3600    1558
157.4400    1483
157.5200    1369
157.6000    1518
157.6800    1422
157.7600    1316
157.8400    1420
157.9200    1309
158.0000    1459
158.0800    1433
158.1600    1376
158.2400    1280
158.3200    1406
158.4000    1330
158.4800    1393
158.5600    1292
158.6400    1390
158.7200    1382
158.8000    1395
158.8800    1312
158.9600    1317
159.0400    1360
159.1200    1293
159.2000    1436
159.2800    1263
159.3600    1301
159.4400    1290
159.5200    1293
159.6000    1355
159.6800    1238
159.7600    1294
159.8400    1334
159.9200    1314
160.0000    1289
160.0800    1308
160.1600    1305
160.2400    1280
160.3200    1290
160.4000    1258
160.4800    1307
160.5600    1268
160.6400    1251
160.7200    1222
160.8000    1241
160.8800    1331
160.9600    1280
161.0400    1383
161.1200    1274
161.1800    1397