File: XRD_Tool/XRD_Tool/bin/Debug/LDA_sample_name_56789_Psi-24_20180623-122849.txt
138.0000     294
138.0800     180
138.1600     229
138.2400     177
138.3200     209
138.4000     188
138.4800     190
138.5600     270
138.6400     241
138.7200     293
138.8000     164
138.8800     324
138.9600     252
139.0400     234
139.1200     220
139.2000     194
139.2800     231
139.3600     266
139.4400     169
139.5200     245
139.6000     215
139.6800     234
139.7600     250
139.8400     195
139.9200     162
140.0000     201
140.0800     281
140.1600     282
140.2400     149
140.3200     257
140.4000     269
140.4800     185
140.5600     157
140.6400     212
140.7200     163
140.8000     123
140.8800     375
140.9600     210
141.0400     300
141.1200     209
141.2000     292
141.2800     225
141.3600     202
141.4400     285
141.5200     189
141.6000     253
141.6800     277
141.7600     126
141.8400     223
141.9200     262
142.0000     223
142.0800     264
142.1600     165
142.2400     289
142.3200     311
142.4000     173
142.4800     286
142.5600     355
142.6400     314
142.7200     247
142.8000     275
142.8800     329
142.9600     292
143.0400     341
143.1200     421
143.2000     286
143.2800     343
143.3600     355
143.4400     342
143.5200     251
143.6000     356
143.6800     275
143.7600     239
143.8400     283
143.9200     332
144.0000     195
144.0800     339
144.1600     268
144.2400     308
144.3200     297
144.4000     334
144.4800     166
144.5600     294
144.6400     205
144.7200     302
144.8000     248
144.8800     353
144.9600     308
145.0400     351
145.1200     372
145.2000     260
145.2800     282
145.3600     290
145.4400     222
145.5200     437
145.6000     351
145.6800     195
145.7600     282
145.8400     289
145.9200     299
146.0000     244
146.0800     223
146.1600     314
146.2400     350
146.3200     190
146.4000     348
146.4800     265
146.5600     332
146.6400     221
146.7200     298
146.8000     318
146.8800     260
146.9600     281
147.0400     285
147.1200     321
147.2000     282
147.2800     363
147.3600     356
147.4400     343
147.5200     305
147.6000     371
147.6800     346
147.7600     438
147.8400     270
147.9200     432
148.0000     342
148.0800     427
148.1600     359
148.2400     418
148.3200     379
148.4000     351
148.4800     379
148.5600     393
148.6400     452
148.7200     395
148.8000     407
148.8800     446
148.9600     392
149.0400     286
149.1200     441
149.2000     481
149.2800     287
149.3600     361
149.4400     412
149.5200     370
149.6000     428
149.6800     444
149.7600     348
149.8400     462
149.9200     463
150.0000     452
150.0800     478
150.1600     441
150.2400     368
150.3200     386
150.4000     448
150.4800     509
150.5600     487
150.6400     506
150.7200     566
150.8000     473
150.8800     450
150.9600     629
151.0400     574
151.1200     532
151.2000     612
151.2800     632
151.3600     630
151.4400     629
151.5200     667
151.6000     684
151.6800     641
151.7600     733
151.8400     765
151.9200     758
152.0000     840
152.0800     813
152.1600     909
152.2400     972
152.3200     880
152.4000     950
152.4800    1173
152.5600    1067
152.6400    1299
152.7200    1198
152.8000    1367
152.8800    1409
152.9600    1500
153.0400    1474
153.1200    1445
153.2000    1782
153.2800    1761
153.3600    1998
153.4400    1940
153.5200    2022
153.6000    2203
153.6800    2248
153.7600    2235
153.8400    2294
153.9200    2107
154.0000    2313
154.0800    2334
154.1600    2543
154.2400    2269
154.3200    2315
154.4000    2310
154.4800    2367
154.5600    2590
154.6400    2285
154.7200    2255
154.8000    2153
154.8800    2224
154.9600    2391
155.0400    2309
155.1200    1994
155.2000    2027
155.2800    1894
155.3600    1858
155.4400    1810
155.5200    1675
155.6000    1544
155.6800    1509
155.7600    1560
155.8400    1494
155.9200    1426
156.0000    1334
156.0800    1275
156.1600    1306
156.2400    1302
156.3200    1085
156.4000    1070
156.4800    1084
156.5600    1120
156.6400     841
156.7200     900
156.8000     843
156.8800     858
156.9600     850
157.0400     900
157.1200     621
157.2000     780
157.2800     613
157.3600     618
157.4400     643
157.5200     665
157.6000     578
157.6800     658
157.7600     604
157.8400     664
157.9200     619
158.0000     649
158.0800     547
158.1600     509
158.2400     579
158.3200     458
158.4000     557
158.4800     478
158.5600     488
158.6400     498
158.7200     527
158.8000     449
158.8800     425
158.9600     469
159.0400     450
159.1200     358
159.2000     416
159.2800     474
159.3600     389
159.4400     396
159.5200     350
159.6000     365
159.6800     310
159.7600     404
159.8400     450
159.9200     523
160.0000     368
160.0800     346
160.1600     304
160.2400     387
160.3200     304
160.4000     398
160.4800     317
160.5600     393
160.6400     271
160.7200     268
160.8000     298
160.8800     282
160.9600     376
161.0400     390
161.1200     416
161.2000     372
161.2800     312
161.3600     367
161.4400     312
161.5200     229
161.6000     371
161.6800     260
161.7600     326
161.8400     356
161.9200     266
161.9800     322