File: XRD_Tool/XRD_Tool/bin/Debug/LDA_sample_name_56789_Psi-15_20180622-205216.txt
127.2000      20
127.2800      19
127.3600      22
127.4400      73
127.5200      49
127.6000      17
127.6800      49
127.7600      10
127.8400      29
127.9200       8
128.0000      36
128.0800      19
128.1600      39
128.2400      22
128.3200      22
128.4000     -18
128.4800      47
128.5600      21
128.6400      13
128.7200      -6
128.8000      23
128.8800     -14
128.9600       4
129.0400      53
129.1200      -1
129.2000      33
129.2800      59
129.3600      62
129.4400      51
129.5200      23
129.6000      67
129.6800      33
129.7600      17
129.8400     -12
129.9200      -5
130.0000      67
130.0800      26
130.1600      -9
130.2400      15
130.3200      35
130.4000      49
130.4800      21
130.5600      13
130.6400      -7
130.7200      18
130.8000      54
130.8800      10
130.9600      -2
131.0400      36
131.1200      36
131.2000      19
131.2800      -5
131.3600      30
131.4400      44
131.5200      41
131.6000      39
131.6800       9
131.7600      61
131.8400      47
131.9200      24
132.0000      28
132.0800      20
132.1600      48
132.2400       0
132.3200      46
132.4000      80
132.4800      28
132.5600      10
132.6400      11
132.7200      48
132.8000      50
132.8800      40
132.9600      18
133.0400      29
133.1200      38
133.2000      17
133.2800      40
133.3600      48
133.4400      58
133.5200      56
133.6000      66
133.6800       2
133.7600      -9
133.8400      -1
133.9200      50
134.0000      32
134.0800      44
134.1600      56
134.2400      53
134.3200      56
134.4000      30
134.4800      24
134.5600      46
134.6400      37
134.7200       0
134.8000      33
134.8800      20
134.9600      47
135.0400      21
135.1200       9
135.2000      16
135.2800       9
135.3600      48
135.4400      38
135.5200      45
135.6000     -16
135.6800     -13
135.7600       2
135.8400      81
135.9200      27
136.0000      29
136.0800      61
136.1600      76
136.2400      44
136.3200      57
136.4000      21
136.4800      43
136.5600       9
136.6400       0
136.7200      33
136.8000      34
136.8800       8
136.9600      38
137.0400      36
137.1200      37
137.2000      33
137.2800      41
137.3600      73
137.4400      25
137.5200      -1
137.6000      57
137.6800      43
137.7600      24
137.8400      41
137.9200      41
138.0000      37
138.0800      44
138.1600      44
138.2400      22
138.3200      23
138.4000      22
138.4800      -4
138.5600      12
138.6400      35
138.7200      43
138.8000      48
138.8800      47
138.9600      34
139.0400      32
139.1200      69
139.2000      33
139.2800      42
139.3600      54
139.4400      71
139.5200      46
139.6000      61
139.6800      29
139.7600      81
139.8400      22
139.9200      29
140.0000      27
140.0800      19
140.1600      27
140.2400      72
140.3200      22
140.4000      69
140.4800      25
140.5600      35
140.6400      32
140.7200      44
140.8000      57
140.8800      20
140.9600      12
141.0400      36
141.1200      46
141.2000      64
141.2800      36
141.3600      38
141.4400      13
141.5200      18
141.6000      24
141.6800      29
141.7600      98
141.8400       1
141.9200      19
142.0000      47
142.0800      64
142.1600      35
142.2400      49
142.3200      39
142.4000      30
142.4800      43
142.5600      39
142.6400      19
142.7200      17
142.8000      36
142.8800      20
142.9600      18
143.0400      30
143.1200      53
143.2000      18
143.2800       9
143.3600      28
143.4400      35
143.5200      51
143.6000      79
143.6800      17
143.7600       8
143.8400      44
143.9200      30
144.0000      48
144.0800       0
144.1600      53
144.2400       9
144.3200      68
144.4000      36
144.4800      25
144.5600      38
144.6400      61
144.7200      11
144.8000      36
144.8800      69
144.9600      67
145.0400      52
145.1200      37
145.2000      18
145.2800       6
145.3600      24
145.4400      58
145.5200      63
145.6000      48
145.6800      52
145.7600       9
145.8400      41
145.9200      10
146.0000      24
146.0800      51
146.1600      34
146.2400      39
146.3200      37
146.4000      10
146.4800      63
146.5600      78
146.6400      27
146.7200      26
146.8000      67
146.8800      68
146.9600       9
147.0400      24
147.1200      27
147.2000      33
147.2800      54
147.3600      56
147.4400       0
147.5200      45
147.6000      25
147.6800      43
147.7600      14
147.8400      64
147.9200      81
148.0000      22
148.0800      12
148.1600       6
148.2400       7
148.3200      39
148.4000      32
148.4800      59
148.5600      81
148.6400      28
148.7200      52
148.8000      40
148.8800      48
148.9600      89
149.0400      70
149.1200      15
149.2000      66
149.2800      79
149.3600      73
149.4400      13
149.5200      68
149.6000      18
149.6800      42
149.7600      59
149.8400      45
149.9200      55
150.0000      45
150.0800      78
150.1600      57
150.2400      80
150.3200      42
150.4000      13
150.4800      33
150.5600      67
150.6400      65
150.7200      80
150.8000      67
150.8800      41
150.9600      55
151.0400      52
151.1200      36
151.1600      -6