File: XRD_Tool/XRD_Tool/bin/Debug/LDA_sample_name_56789_Psi-24_20180622-235823.txt
141.0000     309
141.0800     296
141.1600     240
141.2400     194
141.3200     239
141.4000     239
141.4800     212
141.5600     253
141.6400     215
141.7200     291
141.8000     300
141.8800     259
141.9600     228
142.0400     209
142.1200     330
142.2000     193
142.2800     297
142.3600     154
142.4400     210
142.5200     156
142.6000     266
142.6800     267
142.7600     209
142.8400     292
142.9200     328
143.0000     286
143.0800     158
143.1600     294
143.2400     230
143.3200     399
143.4000     287
143.4800     350
143.5600     312
143.6400     264
143.7200     325
143.8000     244
143.8800     176
143.9600     290
144.0400     241
144.1200     320
144.2000     252
144.2800     282
144.3600     359
144.4400     276
144.5200     326
144.6000     263
144.6800     319
144.7600     208
144.8400     257
144.9200     259
145.0000     430
145.0800     299
145.1600     273
145.2400     287
145.3200     299
145.4000     285
145.4800     329
145.5600     418
145.6400     322
145.7200     446
145.8000     234
145.8800     287
145.9600     321
146.0400     422
146.1200     322
146.2000     331
146.2800     275
146.3600     415
146.4400     312
146.5200     489
146.6000     323
146.6800     369
146.7600     286
146.8400     322
146.9200     263
147.0000     302
147.0800     424
147.1600     349
147.2400     360
147.3200     357
147.4000     304
147.4800     293
147.5600     258
147.6400     301
147.7200     405
147.8000     401
147.8800     395
147.9600     345
148.0400     413
148.1200     456
148.2000     383
148.2800     338
148.3600     379
148.4400     381
148.5200     310
148.6000     410
148.6800     392
148.7600     470
148.8400     387
148.9200     364
149.0000     406
149.0800     299
149.1600     405
149.2400     348
149.3200     404
149.4000     459
149.4800     423
149.5600     447
149.6400     431
149.7200     395
149.8000     380
149.8800     375
149.9600     398
150.0400     384
150.1200     475
150.2000     474
150.2800     439
150.3600     483
150.4400     491
150.5200     503
150.6000     466
150.6800     523
150.7600     611
150.8400     569
150.9200     529
151.0000     566
151.0800     558
151.1600     555
151.2400     591
151.3200     651
151.4000     695
151.4800     699
151.5600     806
151.6400     767
151.7200     713
151.8000     779
151.8800     858
151.9600     815
152.0400     935
152.1200     849
152.2000     940
152.2800     985
152.3600     975
152.4400    1178
152.5200    1171
152.6000    1264
152.6800    1276
152.7600    1363
152.8400    1443
152.9200    1485
153.0000    1448
153.0800    1643
153.1600    1779
153.2400    1882
153.3200    1944
153.4000    1909
153.4800    2065
153.5600    2092
153.6400    2097
153.7200    2248
153.8000    2293
153.8800    2248
153.9600    2340
154.0400    2519
154.1200    2266
154.2000    2584
154.2800    2697
154.3600    2560
154.4400    2781
154.5200    2483
154.6000    2703
154.6800    2530
154.7600    2407
154.8400    2240
154.9200    2317
155.0000    2397
155.0800    2177
155.1600    2129
155.2400    2173
155.3200    2047
155.4000    2050
155.4800    1818
155.5600    1820
155.6400    1834
155.7200    1646
155.8000    1672
155.8800    1662
155.9600    1636
156.0400    1587
156.1200    1457
156.2000    1317
156.2800    1233
156.3600    1228
156.4400    1225
156.5200    1154
156.6000    1138
156.6800    1018
156.7600     937
156.8400     960
156.9200     944
157.0000     747
157.0800     850
157.1600     876
157.2400     789
157.3200     834
157.4000     729
157.4800     642
157.5600     734
157.6400     644
157.7200     602
157.8000     658
157.8800     637
157.9600     609
158.0400     651
158.1200     592
158.2000     539
158.2800     638
158.3600     613
158.4400     531
158.5200     529
158.6000     578
158.6800     542
158.7600     467
158.8400     481
158.9200     463
159.0000     424
159.0800     485
159.1600     416
159.2400     390
159.3200     529
159.4000     404
159.4800     503
159.5600     498
159.6400     479
159.7200     415
159.8000     418
159.8800     347
159.9600     503
160.0400     358
160.1200     453
160.2000     342
160.2800     466
160.3600     391
160.4400     414
160.5200     290
160.6000     363
160.6800     472
160.7600     411
160.8400     386
160.9200     444
161.0000     402
161.0800     414
161.1600     489
161.2400     337
161.3200     314
161.4000     350
161.4800     362
161.5600     391
161.6400     355
161.7200     414
161.8000     352
161.8800     317
161.9600     344
162.0400     345
162.1200     291
162.2000     426
162.2800     382
162.3600     301
162.4400     354
162.5200     330
162.6000     304
162.6800     430
162.7600     326
162.8400     256
162.9200     368
163.0000     377
163.0800     323
163.1600     249
163.2400     234
163.3200     289
163.4000     335
163.4800     305
163.5600     297
163.6400     389
163.7200     355
163.8000     252
163.8800     227
163.9600     320
164.0400     293
164.1200     341
164.2000     253
164.2800     214
164.3600     237
164.4400     183
164.5200     338
164.6000     233
164.6800     236
164.7600     179
164.8400     255
164.9200     228
164.9800     237