File: XRD_Tool/XRD_Tool/bin/Debug/LDA_sample_name_56789_Psi-15_20180623-000554.txt
138.0000     194
138.0800     203
138.1600     246
138.2400     239
138.3200     293
138.4000     191
138.4800     326
138.5600     233
138.6400     199
138.7200     259
138.8000     258
138.8800     181
138.9600     200
139.0400     214
139.1200     255
139.2000     197
139.2800     258
139.3600     318
139.4400     177
139.5200     321
139.6000     253
139.6800     267
139.7600     234
139.8400     229
139.9200     316
140.0000     236
140.0800     156
140.1600     199
140.2400     241
140.3200     233
140.4000     239
140.4800     165
140.5600     213
140.6400     169
140.7200     166
140.8000     264
140.8800     323
140.9600     316
141.0400     256
141.1200     181
141.2000     291
141.2800     205
141.3600     258
141.4400     308
141.5200     217
141.6000     205
141.6800     276
141.7600     258
141.8400     301
141.9200     248
142.0000     295
142.0800     267
142.1600     222
142.2400     263
142.3200     265
142.4000     310
142.4800     312
142.5600     335
142.6400     242
142.7200     227
142.8000     357
142.8800     273
142.9600     329
143.0400     381
143.1200     283
143.2000     358
143.2800     272
143.3600     322
143.4400     263
143.5200     287
143.6000     297
143.6800     256
143.7600     312
143.8400     255
143.9200     221
144.0000     285
144.0800     345
144.1600     324
144.2400     302
144.3200     384
144.4000     217
144.4800     377
144.5600     350
144.6400     241
144.7200     215
144.8000     356
144.8800     303
144.9600     343
145.0400     360
145.1200     324
145.2000     365
145.2800     296
145.3600     363
145.4400     334
145.5200     349
145.6000     305
145.6800     253
145.7600     303
145.8400     328
145.9200     376
146.0000     298
146.0800     391
146.1600     383
146.2400     302
146.3200     286
146.4000     308
146.4800     428
146.5600     319
146.6400     272
146.7200     387
146.8000     383
146.8800     282
146.9600     327
147.0400     274
147.1200     352
147.2000     330
147.2800     268
147.3600     358
147.4400     399
147.5200     398
147.6000     359
147.6800     422
147.7600     331
147.8400     377
147.9200     341
148.0000     409
148.0800     320
148.1600     387
148.2400     367
148.3200     347
148.4000     345
148.4800     388
148.5600     500
148.6400     374
148.7200     358
148.8000     442
148.8800     298
148.9600     323
149.0400     353
149.1200     357
149.2000     372
149.2800     439
149.3600     363
149.4400     402
149.5200     450
149.6000     417
149.6800     441
149.7600     500
149.8400     447
149.9200     581
150.0000     483
150.0800     483
150.1600     552
150.2400     485
150.3200     582
150.4000     475
150.4800     617
150.5600     571
150.6400     484
150.7200     568
150.8000     512
150.8800     609
150.9600     526
151.0400     464
151.1200     503
151.2000     614
151.2800     544
151.3600     631
151.4400     751
151.5200     663
151.6000     792
151.6800     691
151.7600     834
151.8400     802
151.9200     787
152.0000     849
152.0800     987
152.1600     932
152.2400     947
152.3200     989
152.4000    1124
152.4800    1054
152.5600    1276
152.6400    1314
152.7200    1399
152.8000    1484
152.8800    1698
152.9600    1597
153.0400    1582
153.1200    1603
153.2000    1706
153.2800    1996
153.3600    1982
153.4400    2192
153.5200    2135
153.6000    2325
153.6800    2292
153.7600    2495
153.8400    2522
153.9200    2615
154.0000    2511
154.0800    2301
154.1600    2656
154.2400    2631
154.3200    2424
154.4000    2403
154.4800    2564
154.5600    2599
154.6400    2533
154.7200    2252
154.8000    2301
154.8800    2269
154.9600    2262
155.0400    2060
155.1200    1875
155.2000    2052
155.2800    2114
155.3600    1812
155.4400    1699
155.5200    1561
155.6000    1457
155.6800    1425
155.7600    1474
155.8400    1514
155.9200    1338
156.0000    1354
156.0800    1202
156.1600    1150
156.2400    1092
156.3200    1022
156.4000     980
156.4800     952
156.5600    1050
156.6400    1033
156.7200     861
156.8000     731
156.8800     895
156.9600     703
157.0400     778
157.1200     717
157.2000     738
157.2800     703
157.3600     669
157.4400     673
157.5200     659
157.6000     718
157.6800     638
157.7600     628
157.8400     647
157.9200     667
158.0000     666
158.0800     610
158.1600     580
158.2400     588
158.3200     604
158.4000     562
158.4800     599
158.5600     565
158.6400     568
158.7200     487
158.8000     464
158.8800     456
158.9600     434
159.0400     522
159.1200     589
159.2000     502
159.2800     566
159.3600     457
159.4400     383
159.5200     501
159.6000     436
159.6800     458
159.7600     410
159.8400     370
159.9200     292
160.0000     363
160.0800     458
160.1600     395
160.2400     350
160.3200     375
160.4000     417
160.4800     312
160.5600     478
160.6400     407
160.7200     421
160.8000     447
160.8800     409
160.9600     315
161.0400     359
161.1200     334
161.2000     288
161.2800     295
161.3600     393
161.4400     406
161.5200     240
161.6000     363
161.6800     391
161.7600     307
161.8400     345
161.9200     277
161.9800     354