File: XRD_Tool/XRD_Tool/bin/Debug/LDA_sample_name_56789_Psi-24_20180623-122757.txt
138.0000     184
138.0800     116
138.1600     159
138.2400     145
138.3200     189
138.4000     147
138.4800     166
138.5600     184
138.6400     231
138.7200     151
138.8000     145
138.8800     120
138.9600     183
139.0400     147
139.1200     104
139.2000     150
139.2800     113
139.3600     200
139.4400     233
139.5200     141
139.6000     129
139.6800     146
139.7600     171
139.8400     162
139.9200     174
140.0000     172
140.0800     310
140.1600     184
140.2400     259
140.3200     202
140.4000     164
140.4800     193
140.5600     216
140.6400     217
140.7200     258
140.8000     282
140.8800     192
140.9600     212
141.0400     235
141.1200     252
141.2000     253
141.2800     343
141.3600     145
141.4400     183
141.5200     196
141.6000     184
141.6800     307
141.7600     146
141.8400     220
141.9200     169
142.0000     203
142.0800     303
142.1600     209
142.2400     243
142.3200     273
142.4000     230
142.4800     245
142.5600     307
142.6400     250
142.7200     239
142.8000     189
142.8800     271
142.9600     208
143.0400     190
143.1200     164
143.2000     214
143.2800     293
143.3600     215
143.4400     275
143.5200     330
143.6000     209
143.6800     213
143.7600     332
143.8400     233
143.9200     315
144.0000     246
144.0800     163
144.1600     286
144.2400     168
144.3200     205
144.4000     256
144.4800     317
144.5600     258
144.6400     241
144.7200     311
144.8000     311
144.8800     247
144.9600     271
145.0400     318
145.1200     335
145.2000     231
145.2800     315
145.3600     367
145.4400     326
145.5200     381
145.6000     287
145.6800     250
145.7600     341
145.8400     332
145.9200     275
146.0000     277
146.0800     227
146.1600     263
146.2400     288
146.3200     230
146.4000     343
146.4800     234
146.5600     206
146.6400     295
146.7200     279
146.8000     336
146.8800     348
146.9600     269
147.0400     375
147.1200     260
147.2000     352
147.2800     367
147.3600     363
147.4400     431
147.5200     367
147.6000     277
147.6800     329
147.7600     314
147.8400     336
147.9200     374
148.0000     422
148.0800     267
148.1600     396
148.2400     260
148.3200     302
148.4000     390
148.4800     312
148.5600     309
148.6400     410
148.7200     380
148.8000     369
148.8800     478
148.9600     397
149.0400     332
149.1200     352
149.2000     344
149.2800     357
149.3600     371
149.4400     380
149.5200     455
149.6000     313
149.6800     431
149.7600     418
149.8400     385
149.9200     453
150.0000     432
150.0800     398
150.1600     493
150.2400     475
150.3200     463
150.4000     520
150.4800     475
150.5600     449
150.6400     483
150.7200     539
150.8000     568
150.8800     460
150.9600     557
151.0400     505
151.1200     500
151.2000     682
151.2800     592
151.3600     602
151.4400     605
151.5200     607
151.6000     580
151.6800     648
151.7600     615
151.8400     694
151.9200     718
152.0000     713
152.0800     845
152.1600     864
152.2400     833
152.3200     858
152.4000     888
152.4800     972
152.5600    1112
152.6400    1102
152.7200    1158
152.8000    1225
152.8800    1159
152.9600    1372
153.0400    1443
153.1200    1372
153.2000    1515
153.2800    1580
153.3600    1745
153.4400    1691
153.5200    1681
153.6000    1991
153.6800    1950
153.7600    2068
153.8400    2129
153.9200    2080
154.0000    2137
154.0800    2214
154.1600    2480
154.2400    2154
154.3200    2331
154.4000    2225
154.4800    2233
154.5600    2432
154.6400    2255
154.7200    2242
154.8000    2035
154.8800    2124
154.9600    2155
155.0400    2067
155.1200    2060
155.2000    1896
155.2800    1679
155.3600    1746
155.4400    1820
155.5200    1584
155.6000    1586
155.6800    1392
155.7600    1548
155.8400    1501
155.9200    1348
156.0000    1127
156.0800    1237
156.1600    1141
156.2400    1130
156.3200    1081
156.4000    1020
156.4800    1058
156.5600     937
156.6400     848
156.7200     860
156.8000     775
156.8800     797
156.9600     813
157.0400     834
157.1200     765
157.2000     740
157.2800     685
157.3600     698
157.4400     649
157.5200     673
157.6000     725
157.6800     646
157.7600     665
157.8400     594
157.9200     495
158.0000     642
158.0800     528
158.1600     553
158.2400     558
158.3200     523
158.4000     593
158.4800     505
158.5600     606
158.6400     534
158.7200     524
158.8000     563
158.8800     532
158.9600     507
159.0400     412
159.1200     445
159.2000     397
159.2800     498
159.3600     462
159.4400     443
159.5200     483
159.6000     459
159.6800     418
159.7600     429
159.8400     379
159.9200     416
160.0000     407
160.0800     527
160.1600     394
160.2400     437
160.3200     410
160.4000     437
160.4800     366
160.5600     465
160.6400     474
160.7200     389
160.8000     353
160.8800     410
160.9600     326
161.0400     454
161.1200     401
161.2000     303
161.2800     453
161.3600     451
161.4400     439
161.5200     380
161.6000     361
161.6800     289
161.7600     388
161.8400     319
161.9200     451
161.9800     322