File: XRD_Tool/XRD_Tool/bin/Debug/LDA_sample_name_56789_Psi-45_20180622-235734.txt
138.0000     263
138.0800     280
138.1600     164
138.2400     335
138.3200     312
138.4000     167
138.4800     218
138.5600     164
138.6400     293
138.7200     265
138.8000     231
138.8800     290
138.9600     179
139.0400     251
139.1200     193
139.2000     277
139.2800     268
139.3600     128
139.4400     263
139.5200     156
139.6000     301
139.6800     248
139.7600     225
139.8400     174
139.9200     212
140.0000     268
140.0800     275
140.1600     230
140.2400     185
140.3200     186
140.4000     354
140.4800     310
140.5600     198
140.6400     151
140.7200     279
140.8000     239
140.8800     294
140.9600     303
141.0400     265
141.1200     204
141.2000     195
141.2800     213
141.3600     196
141.4400     201
141.5200     212
141.6000     217
141.6800     276
141.7600     185
141.8400     315
141.9200     215
142.0000     172
142.0800     307
142.1600     223
142.2400     277
142.3200     338
142.4000     239
142.4800     316
142.5600     306
142.6400     312
142.7200     406
142.8000     316
142.8800     297
142.9600     304
143.0400     264
143.1200     260
143.2000     342
143.2800     237
143.3600     297
143.4400     247
143.5200     199
143.6000     285
143.6800     288
143.7600     272
143.8400     321
143.9200     385
144.0000     362
144.0800     300
144.1600     284
144.2400     301
144.3200     300
144.4000     247
144.4800     283
144.5600     408
144.6400     308
144.7200     356
144.8000     266
144.8800     283
144.9600     401
145.0400     313
145.1200     371
145.2000     269
145.2800     349
145.3600     299
145.4400     428
145.5200     389
145.6000     332
145.6800     325
145.7600     316
145.8400     350
145.9200     270
146.0000     274
146.0800     327
146.1600     314
146.2400     352
146.3200     278
146.4000     348
146.4800     323
146.5600     291
146.6400     343
146.7200     275
146.8000     347
146.8800     311
146.9600     279
147.0400     294
147.1200     346
147.2000     221
147.2800     237
147.3600     326
147.4400     425
147.5200     292
147.6000     285
147.6800     327
147.7600     367
147.8400     353
147.9200     367
148.0000     486
148.0800     306
148.1600     364
148.2400     366
148.3200     336
148.4000     285
148.4800     437
148.5600     383
148.6400     407
148.7200     333
148.8000     318
148.8800     393
148.9600     355
149.0400     373
149.1200     399
149.2000     336
149.2800     528
149.3600     408
149.4400     399
149.5200     438
149.6000     374
149.6800     407
149.7600     404
149.8400     410
149.9200     373
150.0000     337
150.0800     397
150.1600     401
150.2400     438
150.3200     329
150.4000     543
150.4800     432
150.5600     567
150.6400     366
150.7200     436
150.8000     447
150.8800     387
150.9600     496
151.0400     445
151.1200     458
151.2000     564
151.2800     576
151.3600     538
151.4400     642
151.5200     515
151.6000     612
151.6800     573
151.7600     673
151.8400     712
151.9200     585
152.0000     753
152.0800     789
152.1600     711
152.2400     690
152.3200     702
152.4000     737
152.4800     775
152.5600     821
152.6400     996
152.7200    1096
152.8000     962
152.8800    1082
152.9600    1151
153.0400    1210
153.1200    1255
153.2000    1187
153.2800    1358
153.3600    1475
153.4400    1583
153.5200    1558
153.6000    1784
153.6800    1772
153.7600    1719
153.8400    1692
153.9200    1840
154.0000    2008
154.0800    1839
154.1600    2027
154.2400    2144
154.3200    1925
154.4000    2137
154.4800    2193
154.5600    2319
154.6400    2318
154.7200    2245
154.8000    2043
154.8800    2392
154.9600    2336
155.0400    2292
155.1200    2289
155.2000    2170
155.2800    2088
155.3600    2245
155.4400    2019
155.5200    1906
155.6000    2023
155.6800    1996
155.7600    1791
155.8400    1723
155.9200    1643
156.0000    1687
156.0800    1880
156.1600    1656
156.2400    1575
156.3200    1497
156.4000    1393
156.4800    1550
156.5600    1194
156.6400    1228
156.7200    1334
156.8000    1229
156.8800    1208
156.9600    1068
157.0400    1105
157.1200     960
157.2000     884
157.2800    1012
157.3600     879
157.4400     706
157.5200     759
157.6000     721
157.6800     903
157.7600     789
157.8400     747
157.9200     696
158.0000     789
158.0800     680
158.1600     753
158.2400     680
158.3200     581
158.4000     673
158.4800     555
158.5600     567
158.6400     578
158.7200     580
158.8000     557
158.8800     509
158.9600     424
159.0400     538
159.1200     514
159.2000     561
159.2800     487
159.3600     538
159.4400     426
159.5200     482
159.6000     420
159.6800     414
159.7600     420
159.8400     421
159.9200     385
160.0000     382
160.0800     438
160.1600     403
160.2400     447
160.3200     433
160.4000     434
160.4800     340
160.5600     486
160.6400     498
160.7200     325
160.8000     318
160.8800     352
160.9600     291
161.0400     348
161.1200     282
161.2000     244
161.2800     289
161.3600     307
161.4400     386
161.5200     342
161.6000     325
161.6800     311
161.7600     263
161.8400     358
161.9200     204
161.9800     217