File: XRD_Tool/XRD_Tool/bin/Debug/LDA_sample_name_56789_Psi-35_20180622-235834.txt
141.0000     240
141.0800     167
141.1600     184
141.2400     194
141.3200     242
141.4000     129
141.4800     294
141.5600     168
141.6400     334
141.7200     236
141.8000     239
141.8800     260
141.9600     110
142.0400     255
142.1200     193
142.2000     337
142.2800     181
142.3600     145
142.4400     267
142.5200     230
142.6000     235
142.6800     202
142.7600     236
142.8400     188
142.9200     255
143.0000     176
143.0800     208
143.1600     250
143.2400     134
143.3200     308
143.4000     190
143.4800     193
143.5600     288
143.6400     158
143.7200     171
143.8000     213
143.8800     227
143.9600     321
144.0400     244
144.1200     270
144.2000     220
144.2800     260
144.3600     158
144.4400     248
144.5200     166
144.6000     221
144.6800     249
144.7600     253
144.8400     168
144.9200     286
145.0000     347
145.0800     317
145.1600     297
145.2400     312
145.3200     317
145.4000     403
145.4800     253
145.5600     303
145.6400     286
145.7200     346
145.8000     363
145.8800     375
145.9600     313
146.0400     285
146.1200     380
146.2000     343
146.2800     351
146.3600     274
146.4400     317
146.5200     237
146.6000     320
146.6800     267
146.7600     298
146.8400     354
146.9200     304
147.0000     305
147.0800     338
147.1600     242
147.2400     323
147.3200     355
147.4000     324
147.4800     358
147.5600     281
147.6400     296
147.7200     295
147.8000     300
147.8800     392
147.9600     354
148.0400     267
148.1200     351
148.2000     402
148.2800     299
148.3600     259
148.4400     430
148.5200     322
148.6000     404
148.6800     353
148.7600     321
148.8400     340
148.9200     245
149.0000     376
149.0800     288
149.1600     346
149.2400     257
149.3200     354
149.4000     310
149.4800     323
149.5600     359
149.6400     381
149.7200     364
149.8000     360
149.8800     390
149.9600     339
150.0400     335
150.1200     411
150.2000     336
150.2800     434
150.3600     352
150.4400     533
150.5200     497
150.6000     395
150.6800     517
150.7600     520
150.8400     603
150.9200     514
151.0000     562
151.0800     586
151.1600     659
151.2400     532
151.3200     566
151.4000     532
151.4800     536
151.5600     599
151.6400     574
151.7200     611
151.8000     633
151.8800     635
151.9600     769
152.0400     744
152.1200     788
152.2000     751
152.2800     845
152.3600     793
152.4400     775
152.5200     981
152.6000     943
152.6800     951
152.7600    1178
152.8400    1176
152.9200    1215
153.0000    1176
153.0800    1404
153.1600    1467
153.2400    1485
153.3200    1622
153.4000    1533
153.4800    1790
153.5600    1769
153.6400    1886
153.7200    1976
153.8000    1885
153.8800    2028
153.9600    1999
154.0400    2104
154.1200    2260
154.2000    2363
154.2800    2297
154.3600    2459
154.4400    2514
154.5200    2518
154.6000    2418
154.6800    2564
154.7600    2421
154.8400    2197
154.9200    2272
155.0000    2292
155.0800    2233
155.1600    2112
155.2400    2055
155.3200    2153
155.4000    1995
155.4800    2036
155.5600    2026
155.6400    2057
155.7200    2010
155.8000    1896
155.8800    1934
155.9600    1556
156.0400    1524
156.1200    1547
156.2000    1519
156.2800    1301
156.3600    1351
156.4400    1339
156.5200    1234
156.6000    1273
156.6800    1189
156.7600    1145
156.8400     965
156.9200     912
157.0000     920
157.0800    1022
157.1600     851
157.2400     808
157.3200     925
157.4000     779
157.4800     715
157.5600     792
157.6400     571
157.7200     568
157.8000     704
157.8800     688
157.9600     614
158.0400     602
158.1200     557
158.2000     623
158.2800     473
158.3600     720
158.4400     533
158.5200     504
158.6000     508
158.6800     481
158.7600     481
158.8400     458
158.9200     418
159.0000     515
159.0800     501
159.1600     471
159.2400     452
159.3200     470
159.4000     432
159.4800     460
159.5600     431
159.6400     385
159.7200     487
159.8000     404
159.8800     429
159.9600     369
160.0400     444
160.1200     330
160.2000     426
160.2800     511
160.3600     262
160.4400     399
160.5200     312
160.6000     336
160.6800     459
160.7600     421
160.8400     402
160.9200     455
161.0000     389
161.0800     397
161.1600     360
161.2400     384
161.3200     345
161.4000     315
161.4800     275
161.5600     345
161.6400     396
161.7200     269
161.8000     281
161.8800     310
161.9600     338
162.0400     303
162.1200     282
162.2000     276
162.2800     329
162.3600     312
162.4400     265
162.5200     284
162.6000     241
162.6800     261
162.7600     328
162.8400     332
162.9200     344
163.0000     285
163.0800     296
163.1600     401
163.2400     275
163.3200     306
163.4000     355
163.4800     303
163.5600     376
163.6400     295
163.7200     305
163.8000     248
163.8800     299
163.9600     200
164.0400     244
164.1200     255
164.2000     221
164.2800     304
164.3600     267
164.4400     188
164.5200     209
164.6000     263
164.6800     237
164.7600     210
164.8400     234
164.9200     242
164.9800     280