File: XRD_Tool/XRD_Tool/bin/Debug/LDA_sample_name_56789_Psi-24_20180623-124906.txt
138.0000     246
138.0800     242
138.1600     197
138.2400     300
138.3200     390
138.4000     205
138.4800     284
138.5600     255
138.6400     313
138.7200     321
138.8000     237
138.8800     350
138.9600     286
139.0400     191
139.1200     252
139.2000     190
139.2800     210
139.3600     233
139.4400     279
139.5200     260
139.6000     240
139.6800     255
139.7600     279
139.8400     181
139.9200     117
140.0000     239
140.0800     267
140.1600     316
140.2400     267
140.3200     301
140.4000     198
140.4800     255
140.5600     216
140.6400     282
140.7200     261
140.8000     309
140.8800     317
140.9600     272
141.0400     306
141.1200     287
141.2000     326
141.2800     309
141.3600     267
141.4400     290
141.5200     208
141.6000     248
141.6800     323
141.7600     277
141.8400     295
141.9200     239
142.0000     287
142.0800     302
142.1600     397
142.2400     278
142.3200     355
142.4000     402
142.4800     410
142.5600     355
142.6400     393
142.7200     466
142.8000     321
142.8800     398
142.9600     355
143.0400     353
143.1200     350
143.2000     326
143.2800     324
143.3600     405
143.4400     367
143.5200     357
143.6000     364
143.6800     410
143.7600     264
143.8400     402
143.9200     337
144.0000     418
144.0800     316
144.1600     314
144.2400     338
144.3200     340
144.4000     364
144.4800     346
144.5600     368
144.6400     383
144.7200     332
144.8000     321
144.8800     438
144.9600     319
145.0400     363
145.1200     348
145.2000     417
145.2800     322
145.3600     352
145.4400     414
145.5200     386
145.6000     425
145.6800     387
145.7600     299
145.8400     310
145.9200     324
146.0000     402
146.0800     416
146.1600     410
146.2400     372
146.3200     463
146.4000     416
146.4800     393
146.5600     389
146.6400     368
146.7200     424
146.8000     413
146.8800     338
146.9600     319
147.0400     382
147.1200     401
147.2000     360
147.2800     371
147.3600     435
147.4400     444
147.5200     451
147.6000     422
147.6800     425
147.7600     394
147.8400     500
147.9200     342
148.0000     525
148.0800     388
148.1600     445
148.2400     410
148.3200     470
148.4000     508
148.4800     492
148.5600     490
148.6400     437
148.7200     451
148.8000     415
148.8800     450
148.9600     534
149.0400     411
149.1200     502
149.2000     564
149.2800     468
149.3600     401
149.4400     534
149.5200     483
149.6000     424
149.6800     561
149.7600     578
149.8400     521
149.9200     480
150.0000     565
150.0800     622
150.1600     402
150.2400     531
150.3200     534
150.4000     627
150.4800     518
150.5600     562
150.6400     537
150.7200     587
150.8000     522
150.8800     554
150.9600     655
151.0400     671
151.1200     648
151.2000     590
151.2800     588
151.3600     658
151.4400     724
151.5200     664
151.6000     731
151.6800     811
151.7600     765
151.8400     804
151.9200     864
152.0000     796
152.0800     838
152.1600     859
152.2400     907
152.3200     876
152.4000     954
152.4800     923
152.5600    1209
152.6400    1266
152.7200    1213
152.8000    1345
152.8800    1361
152.9600    1378
153.0400    1405
153.1200    1512
153.2000    1627
153.2800    1663
153.3600    1755
153.4400    1660
153.5200    1956
153.6000    2152
153.6800    2159
153.7600    2327
153.8400    2386
153.9200    2300
154.0000    2286
154.0800    2121
154.1600    2396
154.2400    2297
154.3200    2417
154.4000    2296
154.4800    2327
154.5600    2398
154.6400    2206
154.7200    2184
154.8000    2143
154.8800    2232
154.9600    2306
155.0400    2160
155.1200    2039
155.2000    1883
155.2800    1827
155.3600    1912
155.4400    1906
155.5200    1731
155.6000    1607
155.6800    1533
155.7600    1537
155.8400    1507
155.9200    1281
156.0000    1290
156.0800    1554
156.1600    1152
156.2400    1121
156.3200    1216
156.4000    1025
156.4800    1129
156.5600    1133
156.6400    1095
156.7200     993
156.8000     883
156.8800     924
156.9600     881
157.0400     765
157.1200     934
157.2000     785
157.2800     814
157.3600     783
157.4400     716
157.5200     690
157.6000     570
157.6800     750
157.7600     732
157.8400     729
157.9200     636
158.0000     703
158.0800     615
158.1600     636
158.2400     535
158.3200     578
158.4000     665
158.4800     610
158.5600     682
158.6400     559
158.7200     614
158.8000     602
158.8800     630
158.9600     520
159.0400     503
159.1200     571
159.2000     584
159.2800     587
159.3600     600
159.4400     469
159.5200     550
159.6000     460
159.6800     576
159.7600     556
159.8400     520
159.9200     527
160.0000     523
160.0800     529
160.1600     453
160.2400     569
160.3200     468
160.4000     479
160.4800     464
160.5600     515
160.6400     512
160.7200     523
160.8000     432
160.8800     590
160.9600     445
161.0400     458
161.1200     418
161.2000     421
161.2800     378
161.3600     581
161.4400     584
161.5200     391
161.6000     454
161.6800     416
161.7600     458
161.8400     342
161.9200     452
161.9800     417