File: XRD_Tool/XRD_Tool/bin/Debug/LDA_sample_name_56789_Psi-0_20180622-235809.txt
141.0000     188
141.0800     263
141.1600     286
141.2400     236
141.3200     267
141.4000     290
141.4800     326
141.5600     177
141.6400     232
141.7200     243
141.8000     237
141.8800     233
141.9600     234
142.0400     228
142.1200     325
142.2000     294
142.2800     272
142.3600     295
142.4400     271
142.5200     173
142.6000     287
142.6800     244
142.7600     247
142.8400     262
142.9200     306
143.0000     271
143.0800     245
143.1600     332
143.2400     303
143.3200     223
143.4000     165
143.4800     215
143.5600     243
143.6400     215
143.7200     293
143.8000     273
143.8800     264
143.9600     277
144.0400     236
144.1200     274
144.2000     343
144.2800     274
144.3600     246
144.4400     265
144.5200     348
144.6000     258
144.6800     265
144.7600     284
144.8400     260
144.9200     169
145.0000     287
145.0800     253
145.1600     332
145.2400     331
145.3200     367
145.4000     307
145.4800     314
145.5600     368
145.6400     269
145.7200     270
145.8000     422
145.8800     298
145.9600     352
146.0400     278
146.1200     332
146.2000     288
146.2800     385
146.3600     375
146.4400     324
146.5200     345
146.6000     357
146.6800     293
146.7600     298
146.8400     326
146.9200     349
147.0000     388
147.0800     273
147.1600     394
147.2400     411
147.3200     401
147.4000     402
147.4800     327
147.5600     331
147.6400     255
147.7200     319
147.8000     352
147.8800     294
147.9600     378
148.0400     348
148.1200     361
148.2000     352
148.2800     368
148.3600     307
148.4400     321
148.5200     391
148.6000     347
148.6800     315
148.7600     334
148.8400     386
148.9200     387
149.0000     450
149.0800     372
149.1600     401
149.2400     302
149.3200     300
149.4000     390
149.4800     336
149.5600     405
149.6400     419
149.7200     293
149.8000     431
149.8800     383
149.9600     422
150.0400     453
150.1200     533
150.2000     370
150.2800     572
150.3600     484
150.4400     571
150.5200     474
150.6000     599
150.6800     566
150.7600     645
150.8400     614
150.9200     704
151.0000     739
151.0800     608
151.1600     690
151.2400     680
151.3200     687
151.4000     733
151.4800     727
151.5600     793
151.6400     834
151.7200     916
151.8000    1081
151.8800     818
151.9600     908
152.0400     961
152.1200     940
152.2000    1140
152.2800    1227
152.3600    1109
152.4400    1149
152.5200    1418
152.6000    1489
152.6800    1457
152.7600    1698
152.8400    1693
152.9200    1706
153.0000    1949
153.0800    1821
153.1600    2158
153.2400    2193
153.3200    2458
153.4000    2287
153.4800    2456
153.5600    2521
153.6400    2531
153.7200    2639
153.8000    2732
153.8800    2631
153.9600    2585
154.0400    2726
154.1200    2675
154.2000    2812
154.2800    2870
154.3600    2748
154.4400    2855
154.5200    2678
154.6000    2679
154.6800    2484
154.7600    2456
154.8400    2222
154.9200    2131
155.0000    2161
155.0800    2092
155.1600    1973
155.2400    1928
155.3200    1838
155.4000    1726
155.4800    1648
155.5600    1741
155.6400    1823
155.7200    1711
155.8000    1504
155.8800    1354
155.9600    1420
156.0400    1238
156.1200    1236
156.2000    1180
156.2800    1049
156.3600    1018
156.4400     956
156.5200    1067
156.6000     897
156.6800     891
156.7600     803
156.8400     863
156.9200     870
157.0000     810
157.0800     578
157.1600     740
157.2400     704
157.3200     693
157.4000     690
157.4800     572
157.5600     646
157.6400     645
157.7200     622
157.8000     548
157.8800     582
157.9600     554
158.0400     575
158.1200     547
158.2000     510
158.2800     462
158.3600     508
158.4400     547
158.5200     490
158.6000     418
158.6800     436
158.7600     519
158.8400     468
158.9200     594
159.0000     417
159.0800     340
159.1600     394
159.2400     343
159.3200     468
159.4000     404
159.4800     488
159.5600     507
159.6400     378
159.7200     376
159.8000     414
159.8800     479
159.9600     395
160.0400     475
160.1200     489
160.2000     374
160.2800     360
160.3600     417
160.4400     363
160.5200     368
160.6000     409
160.6800     397
160.7600     456
160.8400     462
160.9200     405
161.0000     333
161.0800     344
161.1600     394
161.2400     358
161.3200     300
161.4000     387
161.4800     349
161.5600     391
161.6400     238
161.7200     379
161.8000     383
161.8800     382
161.9600     288
162.0400     434
162.1200     308
162.2000     354
162.2800     272
162.3600     349
162.4400     433
162.5200     309
162.6000     251
162.6800     329
162.7600     371
162.8400     370
162.9200     318
163.0000     388
163.0800     355
163.1600     312
163.2400     252
163.3200     283
163.4000     317
163.4800     313
163.5600     329
163.6400     250
163.7200     299
163.8000     268
163.8800     314
163.9600     248
164.0400     202
164.1200     324
164.2000     342
164.2800     263
164.3600     271
164.4400     289
164.5200     304
164.6000     237
164.6800     251
164.7600     240
164.8400     370
164.9200     282
164.9800     242