File: XRD_Tool/XRD_Tool/bin/Debug/LDA_sample_name_56789_Psi-0_20180603-122744.txt
128.0000     274
128.0800     250
128.1600     252
128.2400     215
128.3200     270
128.4000     279
128.4800     253
128.5600     259
128.6400     265
128.7200     243
128.8000     249
128.8800     270
128.9600     234
129.0400     234
129.1200     236
129.2000     250
129.2800     228
129.3600     256
129.4400     276
129.5200     251
129.6000     271
129.6800     259
129.7600     265
129.8400     245
129.9200     239
130.0000     267
130.0800     228
130.1600     282
130.2400     283
130.3200     254
130.4000     267
130.4800     257
130.5600     239
130.6400     257
130.7200     245
130.8000     256
130.8800     257
130.9600     246
131.0400     258
131.1200     274
131.2000     271
131.2800     247
131.3600     240
131.4400     305
131.5200     249
131.6000     262
131.6800     269
131.7600     276
131.8400     276
131.9200     257
132.0000     251
132.0800     248
132.1600     266
132.2400     266
132.3200     282
132.4000     294
132.4800     276
132.5600     266
132.6400     277
132.7200     270
132.8000     286
132.8800     260
132.9600     276
133.0400     282
133.1200     262
133.2000     273
133.2800     253
133.3600     262
133.4400     269
133.5200     249
133.6000     249
133.6800     298
133.7600     257
133.8400     251
133.9200     249
134.0000     257
134.0800     259
134.1600     274
134.2400     293
134.3200     270
134.4000     262
134.4800     270
134.5600     261
134.6400     261
134.7200     272
134.8000     261
134.8800     292
134.9600     254
135.0400     241
135.1200     253
135.2000     260
135.2800     269
135.3600     274
135.4400     247
135.5200     272
135.6000     279
135.6800     287
135.7600     259
135.8400     290
135.9200     262
136.0000     283
136.0800     251
136.1600     255
136.2400     246
136.3200     274
136.4000     283
136.4800     268
136.5600     275
136.6400     277
136.7200     274
136.8000     283
136.8800     242
136.9600     262
137.0400     276
137.1200     267
137.2000     281
137.2800     241
137.3600     243
137.4400     292
137.5200     264
137.6000     283
137.6800     311
137.7600     277
137.8400     277
137.9200     282
138.0000     273
138.0800     258
138.1600     260
138.2400     293
138.3200     282
138.4000     286
138.4800     271
138.5600     298
138.6400     275
138.7200     285
138.8000     277
138.8800     229
138.9600     293
139.0400     283
139.1200     259
139.2000     267
139.2800     298
139.3600     268
139.4400     293
139.5200     292
139.6000     290
139.6800     283
139.7600     259
139.8400     272
139.9200     240
140.0000     251
140.0800     274
140.1600     290
140.2400     271
140.3200     272
140.4000     281
140.4800     293
140.5600     308
140.6400     283
140.7200     278
140.8000     277
140.8800     293
140.9600     273
141.0400     259
141.1200     294
141.2000     294
141.2800     280
141.3600     273
141.4400     274
141.5200     268
141.6000     255
141.6800     292
141.7600     260
141.8400     302
141.9200     287
142.0000     274
142.0800     287
142.1600     297
142.2400     251
142.3200     275
142.4000     282
142.4800     280
142.5600     247
142.6400     272
142.7200     252
142.8000     270
142.8800     267
142.9600     270
143.0400     264
143.1200     293
143.2000     262
143.2800     260
143.3600     274
143.4400     280
143.5200     248
143.6000     298
143.6800     289
143.7600     246
143.8400     285
143.9200     267
144.0000     281
144.0800     275
144.1600     275
144.2400     271
144.3200     290
144.4000     298
144.4800     260
144.5600     279
144.6400     276
144.7200     277
144.8000     274
144.8800     282
144.9600     298
145.0400     264
145.1200     274
145.2000     280
145.2800     281
145.3600     233
145.4400     276
145.5200     278
145.6000     232
145.6800     281
145.7600     279
145.8400     273
145.9200     226
146.0000     266
146.0800     279
146.1600     275
146.2400     272
146.3200     289
146.4000     279
146.4800     280
146.5600     254
146.6400     276
146.7200     239
146.8000     261
146.8800     252
146.9600     285
147.0400     275
147.1200     275
147.2000     268
147.2800     270
147.3600     289
147.4400     293
147.5200     287
147.6000     241
147.6800     272
147.7600     303
147.8400     275
147.9200     270
148.0000     298
148.0800     236
148.1600     283
148.2400     303
148.3200     272
148.4000     280
148.4800     238
148.5600     277
148.6400     292
148.7200     304
148.8000     284
148.8800     267
148.9600     293
149.0400     253
149.1200     266
149.2000     286
149.2800     261
149.3600     259
149.4400     271
149.5200     285
149.6000     271
149.6800     288
149.7600     269
149.8400     299
149.9200     285
150.0000     297
150.0800     296
150.1600     278
150.2400     279
150.3200     277
150.4000     273
150.4800     260
150.5600     321
150.6400     251
150.7200     274
150.8000     297
150.8800     285
150.9600     318
151.0400     277
151.1200     263
151.2000     264
151.2800     277
151.3600     293
151.4400     268
151.5200     277
151.6000     294
151.6800     279
151.7600     300
151.8400     285
151.9200     338
151.9600     319