File: XRD_Tool/XRD_Tool/bin/Debug/LDA_sample_name_56789_Psi-0_20180623-125722.txt
138.0000     511
138.0800     572
138.1600     542
138.2400     667
138.3200     714
138.4000     807
138.4800     641
138.5600     745
138.6400     767
138.7200     689
138.8000     702
138.8800     787
138.9600     831
139.0400     769
139.1200     906
139.2000     920
139.2800     811
139.3600     917
139.4400     889
139.5200     935
139.6000    1061
139.6800     983
139.7600     941
139.8400     974
139.9200     936
140.0000    1019
140.0800     975
140.1600     967
140.2400     980
140.3200     921
140.4000     928
140.4800     919
140.5600     925
140.6400    1011
140.7200     939
140.8000     888
140.8800     997
140.9600     920
141.0400     807
141.1200     818
141.2000     909
141.2800     827
141.3600     839
141.4400     796
141.5200     810
141.6000     654
141.6800     686
141.7600     702
141.8400     682
141.9200     650
142.0000     673
142.0800     734
142.1600     620
142.2400     596
142.3200     608
142.4000     646
142.4800     567
142.5600     597
142.6400     627
142.7200     547
142.8000     523
142.8800     463
142.9600     436
143.0400     410
143.1200     459
143.2000     497
143.2800     464
143.3600     489
143.4400     377
143.5200     429
143.6000     401
143.6800     428
143.7600     370
143.8400     413
143.9200     347
144.0000     413
144.0800     357
144.1600     337
144.2400     393
144.3200     351
144.4000     389
144.4800     380
144.5600     254
144.6400     320
144.7200     282
144.8000     311
144.8800     302
144.9600     231
145.0400     284
145.1200     243
145.2000     270
145.2800     248
145.3600     228
145.4400     332
145.5200     246
145.6000     231
145.6800     211
145.7600     232
145.8400     279
145.9200     219
146.0000     252
146.0800     326
146.1600     283
146.2400     227
146.3200     217
146.4000     178
146.4800     208
146.5600     170
146.6400     196
146.7200     258
146.8000     231
146.8800     219
146.9600     173
147.0400     217
147.1200     243
147.2000     201
147.2800     220
147.3600     239
147.4400     274
147.5200     246
147.6000     200
147.6800     216
147.7600     273
147.8400     281
147.9200     232
148.0000     207
148.0800     139
148.1600     217
148.2400     184
148.3200     210
148.4000     211
148.4800     178
148.5600     197
148.6400     238
148.7200     176
148.8000     185
148.8800     211
148.9600     189
149.0400     182
149.1200     128
149.2000     219
149.2800     225
149.3600     156
149.4400     177
149.5200     200
149.6000     142
149.6800     208
149.7600     196
149.8400     174
149.9200     156
150.0000     235
150.0800     234
150.1600     141
150.2400     244
150.3200     252
150.4000     229
150.4800     145
150.5600     167
150.6400     161
150.7200     207
150.8000     170
150.8800     191
150.9600     171
151.0400     148
151.1200     141
151.2000     157
151.2800     172
151.3600     149
151.4400     147
151.5200     199
151.6000     164
151.6800     175
151.7600     143
151.8400     213
151.9200     151
152.0000     186
152.0800     160
152.1600     125
152.2400     151
152.3200     178
152.4000      94
152.4800     151
152.5600     116
152.6400     179
152.7200     195
152.8000     142
152.8800     200
152.9600     128
153.0400     151
153.1200     230
153.2000     133
153.2800     185
153.3600     135
153.4400     143
153.5200     145
153.6000     151
153.6800     211
153.7600     164
153.8400     124
153.9200     141
154.0000     156
154.0800     130
154.1600     143
154.2400     136
154.3200     117
154.4000     121
154.4800     187
154.5600     177
154.6400     202
154.7200     131
154.8000     154
154.8800     209
154.9600      92
155.0400     184
155.1200     187
155.2000     145
155.2800     148
155.3600     117
155.4400     118
155.5200     217
155.6000      70
155.6800     121
155.7600     152
155.8400     111
155.9200      82
156.0000     205
156.0800     155
156.1600     101
156.2400     161
156.3200     190
156.4000     140
156.4800     138
156.5600     112
156.6400     136
156.7200     139
156.8000     151
156.8800     167
156.9600     120
157.0400     157
157.1200     103
157.2000     101
157.2800     129
157.3600     117
157.4400     101
157.5200      89
157.6000     136
157.6800     151
157.7600     184
157.8400     145
157.9200     160
158.0000     148
158.0800     136
158.1600     149
158.2400     126
158.3200     151
158.4000     155
158.4800     166
158.5600      48
158.6400     134
158.7200     123
158.8000     130
158.8800     158
158.9600     109
159.0400     115
159.1200     117
159.2000     111
159.2800      82
159.3600     108
159.4400      97
159.5200      45
159.6000      99
159.6800      83
159.7600     114
159.8400      87
159.9200     146
160.0000     128
160.0800     129
160.1600      83
160.2400     101
160.3200      87
160.4000     141
160.4800     141
160.5600     165
160.6400     147
160.7200      77
160.8000     113
160.8800     141
160.9600     118
161.0400      37
161.1200     130
161.2000      98
161.2800     119
161.3600      81
161.4400     107
161.5200      79
161.6000     110
161.6800      51
161.7600     133
161.8400     119
161.9200      86
161.9800      59