File: XRD_Tool/XRD_Tool/bin/Debug/LDA_sample_name_56789_Psi-0_20180622-204947.txt
127.2000      20
127.2800      53
127.3600      53
127.4400       5
127.5200      42
127.6000      50
127.6800      26
127.7600      42
127.8400      13
127.9200      57
128.0000      67
128.0800      37
128.1600      65
128.2400      29
128.3200      42
128.4000      42
128.4800       9
128.5600      47
128.6400      26
128.7200      18
128.8000      11
128.8800      40
128.9600      50
129.0400       6
129.1200      26
129.2000       7
129.2800      19
129.3600      32
129.4400      62
129.5200      23
129.6000      23
129.6800      57
129.7600      21
129.8400       0
129.9200      33
130.0000      40
130.0800      10
130.1600      41
130.2400      -7
130.3200      30
130.4000      32
130.4800      36
130.5600      16
130.6400     -14
130.7200      52
130.8000      50
130.8800       4
130.9600      18
131.0400       3
131.1200      29
131.2000      -2
131.2800      14
131.3600      45
131.4400      53
131.5200      38
131.6000      49
131.6800      38
131.7600      57
131.8400       1
131.9200      71
132.0000      61
132.0800      11
132.1600      36
132.2400      73
132.3200      27
132.4000      25
132.4800      63
132.5600      55
132.6400      16
132.7200     -15
132.8000      38
132.8800      45
132.9600      26
133.0400       7
133.1200      21
133.2000      24
133.2800      61
133.3600      61
133.4400      28
133.5200      74
133.6000      46
133.6800      13
133.7600      35
133.8400      39
133.9200      21
134.0000      42
134.0800      45
134.1600      22
134.2400      53
134.3200      68
134.4000      30
134.4800      74
134.5600      48
134.6400      29
134.7200      29
134.8000      35
134.8800      52
134.9600      33
135.0400      20
135.1200      21
135.2000      34
135.2800      35
135.3600      43
135.4400      14
135.5200      59
135.6000      75
135.6800      51
135.7600      32
135.8400      29
135.9200      16
136.0000      27
136.0800       3
136.1600      64
136.2400      62
136.3200      32
136.4000      20
136.4800     107
136.5600      40
136.6400      23
136.7200      15
136.8000      64
136.8800      14
136.9600      32
137.0400      43
137.1200      43
137.2000      31
137.2800      48
137.3600      16
137.4400      33
137.5200      45
137.6000      44
137.6800      71
137.7600      40
137.8400      35
137.9200      36
138.0000       8
138.0800      62
138.1600      49
138.2400       5
138.3200      65
138.4000      24
138.4800      26
138.5600      43
138.6400      36
138.7200      27
138.8000      49
138.8800       1
138.9600      45
139.0400      21
139.1200      77
139.2000      67
139.2800      53
139.3600      44
139.4400      64
139.5200      68
139.6000      88
139.6800      46
139.7600      43
139.8400      48
139.9200      78
140.0000      60
140.0800      15
140.1600      37
140.2400      33
140.3200      34
140.4000      55
140.4800      48
140.5600      26
140.6400      61
140.7200      26
140.8000      42
140.8800      26
140.9600      37
141.0400      43
141.1200      17
141.2000      24
141.2800      35
141.3600      39
141.4400      55
141.5200      72
141.6000      16
141.6800      29
141.7600      37
141.8400      33
141.9200      46
142.0000      38
142.0800      42
142.1600      32
142.2400      71
142.3200      41
142.4000      54
142.4800      46
142.5600      51
142.6400      28
142.7200      56
142.8000      62
142.8800       8
142.9600      36
143.0400      28
143.1200      26
143.2000      46
143.2800      47
143.3600      68
143.4400      43
143.5200      39
143.6000      57
143.6800      18
143.7600      46
143.8400      26
143.9200      55
144.0000      64
144.0800      64
144.1600      56
144.2400      36
144.3200      29
144.4000      25
144.4800      45
144.5600      33
144.6400      42
144.7200      70
144.8000       5
144.8800      25
144.9600      56
145.0400       2
145.1200      35
145.2000      42
145.2800      43
145.3600      52
145.4400      48
145.5200       3
145.6000      65
145.6800      84
145.7600      41
145.8400      50
145.9200      50
146.0000      47
146.0800      35
146.1600      97
146.2400      19
146.3200      36
146.4000      91
146.4800      37
146.5600      58
146.6400      39
146.7200      36
146.8000      16
146.8800      65
146.9600       0
147.0400      81
147.1200      36
147.2000      67
147.2800      76
147.3600      13
147.4400      63
147.5200      56
147.6000      81
147.6800      54
147.7600      66
147.8400      74
147.9200      28
148.0000      49
148.0800      35
148.1600      37
148.2400      12
148.3200      33
148.4000      59
148.4800       1
148.5600      89
148.6400      49
148.7200      39
148.8000      74
148.8800      53
148.9600      45
149.0400      77
149.1200      31
149.2000      65
149.2800      54
149.3600      41
149.4400      65
149.5200      72
149.6000     103
149.6800      45
149.7600      88
149.8400      78
149.9200      49
150.0000      84
150.0800      52
150.1600      64
150.2400     107
150.3200      63
150.4000      38
150.4800      68
150.5600      68
150.6400      62
150.7200      77
150.8000      68
150.8800      36
150.9600     108
151.0400     125
151.1200      85
151.1600      52