File: XRD_Tool/XRD_Tool/bin/Debug/LDA_sample_name_56789_Psi-0_20180623-125505.txt
138.0000     297
138.0800     318
138.1600     245
138.2400     287
138.3200     213
138.4000     227
138.4800     357
138.5600     214
138.6400     278
138.7200     382
138.8000     300
138.8800     288
138.9600     235
139.0400     252
139.1200     214
139.2000     316
139.2800     320
139.3600     275
139.4400     342
139.5200     314
139.6000     286
139.6800     269
139.7600     205
139.8400     134
139.9200     276
140.0000     242
140.0800     267
140.1600     288
140.2400     271
140.3200     219
140.4000     293
140.4800     373
140.5600     333
140.6400     232
140.7200     258
140.8000     295
140.8800     223
140.9600     361
141.0400     236
141.1200     250
141.2000     280
141.2800     321
141.3600     369
141.4400     293
141.5200     215
141.6000     265
141.6800     331
141.7600     295
141.8400     232
141.9200     289
142.0000     274
142.0800     230
142.1600     237
142.2400     222
142.3200     316
142.4000     413
142.4800     388
142.5600     441
142.6400     364
142.7200     389
142.8000     395
142.8800     352
142.9600     389
143.0400     266
143.1200     317
143.2000     306
143.2800     413
143.3600     223
143.4400     366
143.5200     342
143.6000     353
143.6800     318
143.7600     257
143.8400     349
143.9200     353
144.0000     351
144.0800     353
144.1600     365
144.2400     427
144.3200     318
144.4000     315
144.4800     466
144.5600     290
144.6400     322
144.7200     428
144.8000     264
144.8800     303
144.9600     318
145.0400     439
145.1200     330
145.2000     387
145.2800     316
145.3600     368
145.4400     249
145.5200     296
145.6000     313
145.6800     332
145.7600     335
145.8400     302
145.9200     313
146.0000     342
146.0800     350
146.1600     406
146.2400     279
146.3200     469
146.4000     394
146.4800     342
146.5600     285
146.6400     275
146.7200     420
146.8000     352
146.8800     400
146.9600     389
147.0400     299
147.1200     327
147.2000     352
147.2800     332
147.3600     380
147.4400     356
147.5200     329
147.6000     334
147.6800     453
147.7600     366
147.8400     400
147.9200     421
148.0000     383
148.0800     445
148.1600     436
148.2400     434
148.3200     474
148.4000     350
148.4800     471
148.5600     349
148.6400     510
148.7200     450
148.8000     377
148.8800     332
148.9600     480
149.0400     438
149.1200     316
149.2000     374
149.2800     474
149.3600     521
149.4400     444
149.5200     402
149.6000     458
149.6800     389
149.7600     496
149.8400     575
149.9200     534
150.0000     528
150.0800     583
150.1600     536
150.2400     479
150.3200     594
150.4000     426
150.4800     588
150.5600     562
150.6400     578
150.7200     644
150.8000     637
150.8800     579
150.9600     582
151.0400     630
151.1200     599
151.2000     678
151.2800     580
151.3600     767
151.4400     712
151.5200     797
151.6000     825
151.6800     778
151.7600     790
151.8400     902
151.9200     987
152.0000     877
152.0800    1015
152.1600    1137
152.2400    1086
152.3200    1190
152.4000    1250
152.4800    1313
152.5600    1403
152.6400    1458
152.7200    1595
152.8000    1774
152.8800    1720
152.9600    1829
153.0400    1778
153.1200    1887
153.2000    2143
153.2800    1983
153.3600    2358
153.4400    2366
153.5200    2356
153.6000    2466
153.6800    2592
153.7600    2433
153.8400    2762
153.9200    2926
154.0000    2507
154.0800    2501
154.1600    2784
154.2400    2547
154.3200    2680
154.4000    2614
154.4800    2527
154.5600    2648
154.6400    2385
154.7200    2420
154.8000    2249
154.8800    2144
154.9600    2401
155.0400    2239
155.1200    1903
155.2000    2163
155.2800    1745
155.3600    1855
155.4400    1733
155.5200    1700
155.6000    1589
155.6800    1463
155.7600    1425
155.8400    1522
155.9200    1295
156.0000    1264
156.0800    1179
156.1600    1131
156.2400    1177
156.3200    1072
156.4000     970
156.4800    1137
156.5600     902
156.6400     932
156.7200     830
156.8000     874
156.8800     755
156.9600     745
157.0400     833
157.1200     632
157.2000     713
157.2800     695
157.3600     628
157.4400     702
157.5200     610
157.6000     542
157.6800     613
157.7600     701
157.8400     591
157.9200     561
158.0000     621
158.0800     514
158.1600     465
158.2400     495
158.3200     533
158.4000     495
158.4800     488
158.5600     612
158.6400     574
158.7200     518
158.8000     521
158.8800     457
158.9600     616
159.0400     423
159.1200     551
159.2000     447
159.2800     517
159.3600     487
159.4400     445
159.5200     436
159.6000     501
159.6800     444
159.7600     488
159.8400     459
159.9200     488
160.0000     509
160.0800     408
160.1600     448
160.2400     429
160.3200     297
160.4000     424
160.4800     375
160.5600     335
160.6400     286
160.7200     394
160.8000     362
160.8800     434
160.9600     344
161.0400     424
161.1200     230
161.2000     261
161.2800     369
161.3600     401
161.4400     292
161.5200     373
161.6000     176
161.6800     357
161.7600     348
161.8400     358
161.9200     259
161.9800     387