File: XRD_Tool/XRD_Tool/bin/Debug/LDA_sample_name_56789_Psi-0_20180603-112316.txt
137.2000     251
137.3200     255
137.4400     276
137.5600     242
137.6800     269
137.8000     255
137.9200     263
138.0400     258
138.1600     245
138.2800     232
138.4000     264
138.5200     255
138.6400     261
138.7600     257
138.8800     276
139.0000     251
139.1200     253
139.2400     246
139.3600     237
139.4800     233
139.6000     247
139.7200     247
139.8400     262
139.9600     249
140.0800     260
140.2000     252
140.3200     254
140.4400     260
140.5600     241
140.6800     263
140.8000     238
140.9200     255
141.0400     248
141.1600     235
141.2800     264
141.4000     256
141.5200     253
141.6400     272
141.7600     273
141.8800     271
142.0000     274
142.1200     259
142.2400     249
142.3600     240
142.4800     252
142.6000     279
142.7200     262
142.8400     257
142.9600     276
143.0800     278
143.2000     270
143.3200     277
143.4400     285
143.5600     258
143.6800     289
143.8000     251
143.9200     256
144.0400     240
144.1600     280
144.2800     283
144.4000     249
144.5200     297
144.6400     252
144.7600     286
144.8800     245
145.0000     275
145.1200     299
145.2400     271
145.3600     252
145.4800     250
145.6000     289
145.7200     297
145.8400     256
145.9600     285
146.0800     259
146.2000     250
146.3200     277
146.4400     288
146.5600     272
146.6800     243
146.8000     252
146.9200     301
147.0400     276
147.1600     260
147.2800     280
147.4000     260
147.5200     295
147.6400     243
147.7600     325
147.8800     296
148.0000     278
148.1200     251
148.2400     289
148.3600     289
148.4800     290
148.6000     251
148.7200     315
148.8400     290
148.9600     282
149.0800     302
149.2000     272
149.3200     282
149.4400     288
149.5600     273
149.6800     314
149.8000     329
149.9200     273
150.0400     320
150.1600     305
150.2800     311
150.4000     312
150.5200     334
150.6400     321
150.7600     307
150.8800     311
151.0000     326
151.1200     322
151.2400     347
151.3600     388
151.4800     376
151.6000     340
151.7200     362
151.8400     374
151.9600     400
152.0800     398
152.2000     393
152.3200     398
152.4400     430
152.5600     433
152.6800     486
152.8000     467
152.9200     501
153.0400     536
153.1600     571
153.2800     581
153.4000     598
153.5200     562
153.6400     635
153.7600     682
153.8800     730
154.0000     669
154.1200     737
154.2400     769
154.3600     752
154.4800     753
154.6000     777
154.7200     813
154.8400     758
154.9600     774
155.0800     722
155.2000     676
155.3200     676
155.4400     652
155.5600     610
155.6800     601
155.8000     614
155.9200     600
156.0400     523
156.1600     510
156.2800     484
156.4000     478
156.5200     502
156.6400     471
156.7600     404
156.8800     394
157.0000     424
157.1200     391
157.2400     393
157.3600     390
157.4800     375
157.6000     402
157.7200     363
157.8400     397
157.9600     369
158.0800     339
158.2000     357
158.3200     373
158.4400     357
158.5600     362
158.6800     325
158.8000     281
158.9200     353
159.0400     313
159.1600     312
159.2800     299
159.4000     316
159.5200     289
159.6400     281
159.7600     312
159.8800     294
160.0000     263
160.1200     301
160.2400     299
160.3600     271
160.4800     263
160.6000     279
160.7200     280
160.8400     276
160.9600     290
161.0800     275
161.2000     273
161.3200     282
161.4400     256
161.5600     288
161.6800     286
161.8000     272
161.9200     293
162.0400     235
162.1600     264
162.2800     283
162.4000     263
162.5200     274
162.6400     274
162.7600     226