File: XRD_Tool/XRD_Tool/bin/Debug/LDA_sample_name_56789_Psi-15_20180622-205754.txt
127.2000      39
127.2800      41
127.3600      37
127.4400      37
127.5200      11
127.6000       0
127.6800      25
127.7600      72
127.8400      49
127.9200      36
128.0000      46
128.0800       3
128.1600      64
128.2400      54
128.3200      38
128.4000      43
128.4800      19
128.5600      44
128.6400      36
128.7200      13
128.8000      58
128.8800      29
128.9600      25
129.0400      92
129.1200      55
129.2000      40
129.2800      75
129.3600      21
129.4400     103
129.5200      47
129.6000      54
129.6800      47
129.7600      30
129.8400      34
129.9200      24
130.0000      47
130.0800      38
130.1600      45
130.2400      98
130.3200       3
130.4000      51
130.4800      72
130.5600      36
130.6400      87
130.7200      59
130.8000      45
130.8800      50
130.9600      33
131.0400      16
131.1200      62
131.2000      71
131.2800      73
131.3600      23
131.4400      59
131.5200      55
131.6000      14
131.6800      25
131.7600      29
131.8400      42
131.9200      69
132.0000      43
132.0800      60
132.1600      14
132.2400      61
132.3200      88
132.4000      33
132.4800      27
132.5600      43
132.6400      31
132.7200      56
132.8000      40
132.8800      32
132.9600      27
133.0400      92
133.1200      56
133.2000      11
133.2800      34
133.3600      39
133.4400      45
133.5200      35
133.6000      51
133.6800      79
133.7600      52
133.8400      83
133.9200      48
134.0000     105
134.0800      40
134.1600      62
134.2400      26
134.3200      73
134.4000      35
134.4800      62
134.5600      65
134.6400      17
134.7200      74
134.8000      17
134.8800      71
134.9600      46
135.0400      50
135.1200      41
135.2000     -16
135.2800      28
135.3600       5
135.4400      83
135.5200      87
135.6000      41
135.6800      70
135.7600      54
135.8400      10
135.9200      80
136.0000      48
136.0800      52
136.1600      15
136.2400      60
136.3200      66
136.4000      45
136.4800      98
136.5600      64
136.6400      20
136.7200      84
136.8000      52
136.8800      28
136.9600      77
137.0400      55
137.1200      41
137.2000      76
137.2800      92
137.3600      53
137.4400      26
137.5200      48
137.6000      50
137.6800     111
137.7600      77
137.8400      82
137.9200      27
138.0000      34
138.0800      62
138.1600      55
138.2400      53
138.3200      88
138.4000      48
138.4800      63
138.5600      54
138.6400      56
138.7200      63
138.8000      62
138.8800       0
138.9600      31
139.0400      68
139.1200      58
139.2000      88
139.2800      55
139.3600      35
139.4400      46
139.5200      43
139.6000      75
139.6800      50
139.7600      69
139.8400      47
139.9200      50
140.0000      53
140.0800      60
140.1600      46
140.2400      27
140.3200      26
140.4000      57
140.4800      50
140.5600      45
140.6400      43
140.7200      49
140.8000      52
140.8800      67
140.9600      89
141.0400      81
141.1200      61
141.2000      27
141.2800      77
141.3600      44
141.4400      35
141.5200      22
141.6000      24
141.6800       6
141.7600      67
141.8400      63
141.9200      28
142.0000      76
142.0800      48
142.1600      57
142.2400      10
142.3200      81
142.4000     100
142.4800      17
142.5600      50
142.6400      83
142.7200      72
142.8000      33
142.8800      18
142.9600      56
143.0400      44
143.1200      87
143.2000      66
143.2800      73
143.3600      -5
143.4400      25
143.5200      24
143.6000      47
143.6800      27
143.7600      43
143.8400      47
143.9200      88
144.0000      41
144.0800      43
144.1600      58
144.2400      81
144.3200      38
144.4000      47
144.4800      67
144.5600      58
144.6400      68
144.7200      99
144.8000      31
144.8800      12
144.9600      52
145.0400      71
145.1200     126
145.2000     116
145.2800      99
145.3600      32
145.4400      14
145.5200      37
145.6000      58
145.6800      47
145.7600      26
145.8400      51
145.9200      45
146.0000      70
146.0800      39
146.1600      24
146.2400      28
146.3200      12
146.4000     100
146.4800      84
146.5600      16
146.6400      61
146.7200      58
146.8000      37
146.8800      38
146.9600      90
147.0400      82
147.1200      24
147.2000      90
147.2800      53
147.3600      15
147.4400      87
147.5200      82
147.6000      30
147.6800      18
147.7600      29
147.8400      59
147.9200      35
148.0000      69
148.0800      90
148.1600      42
148.2400      61
148.3200      48
148.4000      70
148.4800      54
148.5600      56
148.6400      48
148.7200      92
148.8000      47
148.8800      41
148.9600      38
149.0400      57
149.1200      60
149.2000      54
149.2800      50
149.3600      22
149.4400      54
149.5200      40
149.6000      59
149.6800      77
149.7600      65
149.8400      22
149.9200      49
150.0000      43
150.0800     104
150.1600      67
150.2400      83
150.3200      87
150.4000      63
150.4800      96
150.5600      80
150.6400      98
150.7200      96
150.8000      87
150.8800      46
150.9600      69
151.0400      87
151.1200     127
151.1600     104