File: XRD_Tool/XRD_Tool/bin/Debug/LDA_sample_name_56789_Psi-0_20180623-000329.txt
141.0000     244
141.0800     246
141.1600      98
141.2400     139
141.3200     262
141.4000     210
141.4800     246
141.5600     197
141.6400     229
141.7200     298
141.8000     138
141.8800     246
141.9600     242
142.0400     182
142.1200     252
142.2000     206
142.2800     175
142.3600     127
142.4400     302
142.5200     197
142.6000     256
142.6800     243
142.7600     196
142.8400     152
142.9200     191
143.0000     191
143.0800     159
143.1600     195
143.2400     233
143.3200     256
143.4000     174
143.4800     306
143.5600     195
143.6400     192
143.7200     184
143.8000     209
143.8800     142
143.9600     250
144.0400     143
144.1200     198
144.2000     200
144.2800     223
144.3600     196
144.4400     338
144.5200     225
144.6000     175
144.6800     256
144.7600     191
144.8400     199
144.9200     214
145.0000     164
145.0800     228
145.1600     188
145.2400     175
145.3200     300
145.4000     223
145.4800     308
145.5600     207
145.6400     315
145.7200     302
145.8000     287
145.8800     253
145.9600     325
146.0400     309
146.1200     249
146.2000     257
146.2800     264
146.3600     236
146.4400     178
146.5200     261
146.6000     277
146.6800     292
146.7600     261
146.8400     298
146.9200     340
147.0000     278
147.0800     287
147.1600     285
147.2400     269
147.3200     293
147.4000     303
147.4800     260
147.5600     271
147.6400     301
147.7200     378
147.8000     322
147.8800     367
147.9600     291
148.0400     329
148.1200     334
148.2000     334
148.2800     304
148.3600     322
148.4400     339
148.5200     433
148.6000     362
148.6800     254
148.7600     296
148.8400     369
148.9200     343
149.0000     321
149.0800     322
149.1600     250
149.2400     348
149.3200     438
149.4000     360
149.4800     276
149.5600     212
149.6400     348
149.7200     294
149.8000     365
149.8800     276
149.9600     327
150.0400     413
150.1200     441
150.2000     460
150.2800     372
150.3600     409
150.4400     459
150.5200     532
150.6000     476
150.6800     516
150.7600     515
150.8400     562
150.9200     487
151.0000     633
151.0800     637
151.1600     536
151.2400     591
151.3200     641
151.4000     683
151.4800     686
151.5600     663
151.6400     806
151.7200     773
151.8000     924
151.8800     779
151.9600     806
152.0400     938
152.1200     844
152.2000     986
152.2800    1120
152.3600    1059
152.4400    1264
152.5200    1368
152.6000    1376
152.6800    1465
152.7600    1634
152.8400    1560
152.9200    1650
153.0000    1848
153.0800    1855
153.1600    2021
153.2400    2095
153.3200    2130
153.4000    2166
153.4800    2409
153.5600    2341
153.6400    2377
153.7200    2696
153.8000    2325
153.8800    2671
153.9600    2638
154.0400    2678
154.1200    2555
154.2000    2663
154.2800    2572
154.3600    2638
154.4400    2653
154.5200    2416
154.6000    2417
154.6800    2455
154.7600    2294
154.8400    2307
154.9200    2130
155.0000    1978
155.0800    2024
155.1600    2012
155.2400    1843
155.3200    1783
155.4000    1731
155.4800    1539
155.5600    1694
155.6400    1514
155.7200    1561
155.8000    1444
155.8800    1343
155.9600    1366
156.0400    1211
156.1200    1226
156.2000    1141
156.2800     952
156.3600    1058
156.4400     907
156.5200     992
156.6000     908
156.6800     885
156.7600     759
156.8400     850
156.9200     890
157.0000     718
157.0800     714
157.1600     791
157.2400     640
157.3200     697
157.4000     654
157.4800     670
157.5600     600
157.6400     523
157.7200     502
157.8000     583
157.8800     545
157.9600     500
158.0400     481
158.1200     384
158.2000     440
158.2800     447
158.3600     500
158.4400     436
158.5200     540
158.6000     463
158.6800     495
158.7600     446
158.8400     450
158.9200     320
159.0000     442
159.0800     342
159.1600     403
159.2400     470
159.3200     377
159.4000     290
159.4800     379
159.5600     334
159.6400     417
159.7200     411
159.8000     362
159.8800     322
159.9600     299
160.0400     326
160.1200     283
160.2000     109
160.2800     328
160.3600     320
160.4400     331
160.5200     223
160.6000     285
160.6800     329
160.7600     412
160.8400     460
160.9200     319
161.0000     234
161.0800     267
161.1600     350
161.2400     252
161.3200     251
161.4000     289
161.4800     291
161.5600     361
161.6400     278
161.7200     245
161.8000     369
161.8800     236
161.9600     233
162.0400     209
162.1200     342
162.2000     350
162.2800     267
162.3600     324
162.4400     347
162.5200     202
162.6000     333
162.6800     324
162.7600     428
162.8400     217
162.9200     307
163.0000     303
163.0800     292
163.1600     222
163.2400     285
163.3200     313
163.4000     174
163.4800     334
163.5600     283
163.6400     246
163.7200     340
163.8000     287
163.8800     287
163.9600     216
164.0400     200
164.1200     163
164.2000     252
164.2800     116
164.3600     291
164.4400     339
164.5200     254
164.6000     269
164.6800     185
164.7600     306
164.8400     175
164.9200     246
164.9800     386