File: XRD_Tool/XRD_Tool/bin/Debug/LDA_sample_name_56789_Psi-24_20180623-125611.txt
138.0000     302
138.0800     332
138.1600     239
138.2400     310
138.3200     251
138.4000     262
138.4800     236
138.5600     326
138.6400     222
138.7200     224
138.8000     267
138.8800     305
138.9600     343
139.0400     297
139.1200     301
139.2000     327
139.2800     331
139.3600     174
139.4400     268
139.5200     183
139.6000     299
139.6800     270
139.7600     272
139.8400     209
139.9200     272
140.0000     306
140.0800     237
140.1600     312
140.2400     292
140.3200     271
140.4000     254
140.4800     246
140.5600     251
140.6400     140
140.7200     235
140.8000     232
140.8800     281
140.9600     358
141.0400     266
141.1200     257
141.2000     284
141.2800     308
141.3600     208
141.4400     349
141.5200     194
141.6000     314
141.6800     215
141.7600     194
141.8400     302
141.9200     287
142.0000     312
142.0800     317
142.1600     241
142.2400     334
142.3200     290
142.4000     347
142.4800     383
142.5600     405
142.6400     339
142.7200     302
142.8000     363
142.8800     362
142.9600     346
143.0400     359
143.1200     314
143.2000     320
143.2800     346
143.3600     244
143.4400     391
143.5200     282
143.6000     248
143.6800     392
143.7600     353
143.8400     322
143.9200     355
144.0000     321
144.0800     389
144.1600     214
144.2400     449
144.3200     331
144.4000     284
144.4800     373
144.5600     270
144.6400     378
144.7200     416
144.8000     447
144.8800     223
144.9600     290
145.0400     366
145.1200     403
145.2000     368
145.2800     436
145.3600     320
145.4400     310
145.5200     328
145.6000     373
145.6800     302
145.7600     407
145.8400     343
145.9200     347
146.0000     274
146.0800     348
146.1600     302
146.2400     346
146.3200     241
146.4000     363
146.4800     390
146.5600     306
146.6400     282
146.7200     440
146.8000     386
146.8800     377
146.9600     364
147.0400     403
147.1200     360
147.2000     352
147.2800     394
147.3600     340
147.4400     454
147.5200     320
147.6000     301
147.6800     299
147.7600     362
147.8400     432
147.9200     457
148.0000     477
148.0800     351
148.1600     438
148.2400     359
148.3200     368
148.4000     433
148.4800     347
148.5600     355
148.6400     312
148.7200     418
148.8000     394
148.8800     390
148.9600     443
149.0400     417
149.1200     377
149.2000     475
149.2800     407
149.3600     401
149.4400     485
149.5200     422
149.6000     480
149.6800     423
149.7600     461
149.8400     399
149.9200     541
150.0000     420
150.0800     467
150.1600     599
150.2400     428
150.3200     515
150.4000     430
150.4800     503
150.5600     445
150.6400     500
150.7200     555
150.8000     536
150.8800     537
150.9600     576
151.0400     661
151.1200     685
151.2000     682
151.2800     623
151.3600     736
151.4400     605
151.5200     736
151.6000     758
151.6800     723
151.7600     784
151.8400     823
151.9200     748
152.0000     876
152.0800     787
152.1600     832
152.2400     889
152.3200    1015
152.4000    1038
152.4800     951
152.5600    1192
152.6400    1201
152.7200    1440
152.8000    1384
152.8800    1619
152.9600    1606
153.0400    1489
153.1200    1700
153.2000    1833
153.2800    1787
153.3600    1959
153.4400    2065
153.5200    2073
153.6000    2293
153.6800    2226
153.7600    2369
153.8400    2325
153.9200    2286
154.0000    2388
154.0800    2350
154.1600    2504
154.2400    2502
154.3200    2513
154.4000    2553
154.4800    2455
154.5600    2681
154.6400    2339
154.7200    2388
154.8000    2307
154.8800    2235
154.9600    2450
155.0400    2448
155.1200    2172
155.2000    1886
155.2800    1972
155.3600    1929
155.4400    1762
155.5200    1899
155.6000    1766
155.6800    1696
155.7600    1554
155.8400    1623
155.9200    1361
156.0000    1448
156.0800    1296
156.1600    1309
156.2400    1166
156.3200    1093
156.4000    1199
156.4800    1124
156.5600     980
156.6400     982
156.7200     929
156.8000     948
156.8800     897
156.9600     883
157.0400     916
157.1200     782
157.2000     746
157.2800     732
157.3600     758
157.4400     734
157.5200     644
157.6000     676
157.6800     701
157.7600     779
157.8400     597
157.9200     600
158.0000     633
158.0800     571
158.1600     592
158.2400     537
158.3200     454
158.4000     566
158.4800     437
158.5600     418
158.6400     503
158.7200     496
158.8000     560
158.8800     453
158.9600     456
159.0400     503
159.1200     505
159.2000     474
159.2800     474
159.3600     416
159.4400     517
159.5200     495
159.6000     412
159.6800     412
159.7600     368
159.8400     545
159.9200     394
160.0000     457
160.0800     509
160.1600     428
160.2400     335
160.3200     412
160.4000     405
160.4800     299
160.5600     429
160.6400     407
160.7200     378
160.8000     351
160.8800     436
160.9600     454
161.0400     379
161.1200     345
161.2000     415
161.2800     382
161.3600     206
161.4400     338
161.5200     347
161.6000     313
161.6800     272
161.7600     348
161.8400     224
161.9200     293
161.9800     286