File: XRD_Tool/XRD_Tool/bin/Debug/LDA_sample_name_56789_Psi-0_20180603-120444.txt
137.2000     234
137.3200     236
137.4400     225
137.5600     256
137.6800     270
137.8000     242
137.9200     267
138.0400     275
138.1600     244
138.2800     251
138.4000     252
138.5200     261
138.6400     251
138.7600     277
138.8800     270
139.0000     266
139.1200     236
139.2400     282
139.3600     263
139.4800     264
139.6000     281
139.7200     278
139.8400     245
139.9600     264
140.0800     253
140.2000     240
140.3200     255
140.4400     237
140.5600     263
140.6800     277
140.8000     280
140.9200     258
141.0400     270
141.1600     242
141.2800     250
141.4000     274
141.5200     253
141.6400     246
141.7600     254
141.8800     283
142.0000     286
142.1200     256
142.2400     268
142.3600     233
142.4800     237
142.6000     290
142.7200     249
142.8400     283
142.9600     273
143.0800     298
143.2000     300
143.3200     268
143.4400     263
143.5600     254
143.6800     279
143.8000     275
143.9200     252
144.0400     290
144.1600     265
144.2800     246
144.4000     266
144.5200     251
144.6400     252
144.7600     262
144.8800     292
145.0000     301
145.1200     269
145.2400     282
145.3600     260
145.4800     273
145.6000     227
145.7200     293
145.8400     291
145.9600     264
146.0800     285
146.2000     283
146.3200     267
146.4400     263
146.5600     272
146.6800     271
146.8000     257
146.9200     256
147.0400     268
147.1600     272
147.2800     268
147.4000     283
147.5200     268
147.6400     261
147.7600     306
147.8800     305
148.0000     302
148.1200     294
148.2400     323
148.3600     297
148.4800     302
148.6000     310
148.7200     282
148.8400     285
148.9600     278
149.0800     295
149.2000     300
149.3200     293
149.4400     274
149.5600     286
149.6800     278
149.8000     296
149.9200     297
150.0400     324
150.1600     310
150.2800     297
150.4000     279
150.5200     316
150.6400     346
150.7600     294
150.8800     348
151.0000     318
151.1200     317
151.2400     318
151.3600     342
151.4800     392
151.6000     355
151.7200     363
151.8400     378
151.9600     378
152.0800     383
152.2000     394
152.3200     410
152.4400     405
152.5600     437
152.6800     535
152.8000     462
152.9200     519
153.0400     500
153.1600     531
153.2800     587
153.4000     599
153.5200     598
153.6400     728
153.7600     669
153.8800     709
154.0000     703
154.1200     807
154.2400     773
154.3600     786
154.4800     755
154.6000     767
154.7200     750
154.8400     707
154.9600     802
155.0800     798
155.2000     731
155.3200     679
155.4400     592
155.5600     676
155.6800     646
155.8000     620
155.9200     572
156.0400     570
156.1600     550
156.2800     500
156.4000     507
156.5200     486
156.6400     472
156.7600     410
156.8800     459
157.0000     445
157.1200     417
157.2400     421
157.3600     401
157.4800     381
157.6000     364
157.7200     377
157.8400     385
157.9600     372
158.0800     349
158.2000     315
158.3200     346
158.4400     337
158.5600     359
158.6800     362
158.8000     325
158.9200     332
159.0400     337
159.1600     321
159.2800     305
159.4000     335
159.5200     289
159.6400     289
159.7600     286
159.8800     315
160.0000     284
160.1200     318
160.2400     289
160.3600     277
160.4800     253
160.6000     279
160.7200     279
160.8400     280
160.9600     282
161.0800     299
161.2000     281
161.3200     261
161.4400     245
161.5600     303
161.6800     237
161.8000     291
161.9200     299
162.0400     255
162.1600     283
162.2800     263
162.4000     255
162.5200     244
162.6400     268
162.7600     231