File: XRD_Tool/XRD_Tool/bin/Debug/LDA_sample_name_56789_Psi-0_20180623-125759.txt
138.0000     341
138.0800     252
138.1600     318
138.2400     290
138.3200     338
138.4000     297
138.4800     361
138.5600     321
138.6400     363
138.7200     352
138.8000     424
138.8800     365
138.9600     322
139.0400     302
139.1200     348
139.2000     329
139.2800     393
139.3600     335
139.4400     403
139.5200     412
139.6000     319
139.6800     374
139.7600     442
139.8400     396
139.9200     437
140.0000     488
140.0800     421
140.1600     435
140.2400     464
140.3200     490
140.4000     547
140.4800     602
140.5600     641
140.6400     651
140.7200     607
140.8000     669
140.8800     723
140.9600     753
141.0400     842
141.1200     773
141.2000     976
141.2800     986
141.3600     986
141.4400    1122
141.5200    1149
141.6000    1297
141.6800    1307
141.7600    1320
141.8400    1488
141.9200    1637
142.0000    1702
142.0800    2082
142.1600    2090
142.2400    2174
142.3200    2542
142.4000    2497
142.4800    2796
142.5600    2912
142.6400    2813
142.7200    3011
142.8000    2795
142.8800    2675
142.9600    2792
143.0400    2843
143.1200    2617
143.2000    2601
143.2800    2232
143.3600    2289
143.4400    2176
143.5200    2168
143.6000    1926
143.6800    1789
143.7600    1681
143.8400    1624
143.9200    1399
144.0000    1449
144.0800    1291
144.1600    1330
144.2400    1255
144.3200    1099
144.4000    1017
144.4800     929
144.5600     967
144.6400     896
144.7200     796
144.8000     792
144.8800     657
144.9600     659
145.0400     557
145.1200     502
145.2000     442
145.2800     418
145.3600     405
145.4400     428
145.5200     324
145.6000     353
145.6800     275
145.7600     235
145.8400     285
145.9200     265
146.0000     231
146.0800     271
146.1600     199
146.2400     183
146.3200     229
146.4000     193
146.4800     191
146.5600     163
146.6400     177
146.7200     177
146.8000     211
146.8800     153
146.9600     197
147.0400     145
147.1200     189
147.2000     185
147.2800     178
147.3600     156
147.4400     130
147.5200     135
147.6000     190
147.6800     182
147.7600     159
147.8400     186
147.9200     139
148.0000     134
148.0800      96
148.1600     149
148.2400     159
148.3200     154
148.4000     198
148.4800     206
148.5600     177
148.6400     168
148.7200     141
148.8000     160
148.8800     163
148.9600     146
149.0400     134
149.1200     162
149.2000     112
149.2800     114
149.3600     102
149.4400     149
149.5200     154
149.6000     162
149.6800     166
149.7600     149
149.8400     129
149.9200     137
150.0000     145
150.0800     145
150.1600     146
150.2400     128
150.3200      80
150.4000     115
150.4800     123
150.5600     161
150.6400     159
150.7200     135
150.8000     118
150.8800      94
150.9600     137
151.0400      96
151.1200     123
151.2000     122
151.2800     114
151.3600     114
151.4400     117
151.5200     143
151.6000     120
151.6800     121
151.7600     135
151.8400     105
151.9200     106
152.0000     103
152.0800      89
152.1600     131
152.2400     106
152.3200     100
152.4000     128
152.4800     128
152.5600     107
152.6400     149
152.7200     120
152.8000     132
152.8800     154
152.9600     114
153.0400     142
153.1200     101
153.2000     158
153.2800     147
153.3600      96
153.4400      90
153.5200     113
153.6000      89
153.6800     176
153.7600     119
153.8400     134
153.9200     136
154.0000     108
154.0800     119
154.1600     124
154.2400      85
154.3200      64
154.4000     101
154.4800     130
154.5600     120
154.6400     130
154.7200      79
154.8000     144
154.8800     118
154.9600     143
155.0400     111
155.1200     140
155.2000     105
155.2800     114
155.3600      71
155.4400      92
155.5200      98
155.6000     124
155.6800     106
155.7600     119
155.8400      75
155.9200      84
156.0000     115
156.0800     105
156.1600      82
156.2400     104
156.3200      86
156.4000     120
156.4800      81
156.5600     110
156.6400     105
156.7200      99
156.8000      39
156.8800     114
156.9600     122
157.0400      66
157.1200      87
157.2000      73
157.2800     111
157.3600     109
157.4400     142
157.5200     130
157.6000     124
157.6800     119
157.7600     103
157.8400      77
157.9200      97
158.0000     106
158.0800     127
158.1600     113
158.2400     110
158.3200     116
158.4000      70
158.4800      92
158.5600     132
158.6400     105
158.7200     105
158.8000      77
158.8800      71
158.9600      66
159.0400     102
159.1200      85
159.2000      86
159.2800      99
159.3600      89
159.4400      89
159.5200      92
159.6000      85
159.6800      98
159.7600     120
159.8400      63
159.9200      66
160.0000      99
160.0800     136
160.1600      47
160.2400      90
160.3200      84
160.4000     158
160.4800     102
160.5600     109
160.6400      71
160.7200     109
160.8000      59
160.8800     115
160.9600      99
161.0400     154
161.1200      53
161.2000      73
161.2800     106
161.3600      60
161.4400     129
161.5200      79
161.6000      96
161.6800     101
161.7600      93
161.8400      43
161.9200      39
161.9800      67