File: XRD_Tool/XRD_Tool/bin/Debug/LDA_sample_name_56789_Psi-24_20180622-235710.txt
138.0000     291
138.0800     332
138.1600     180
138.2400     202
138.3200     259
138.4000     296
138.4800     273
138.5600     174
138.6400     223
138.7200     237
138.8000     237
138.8800     206
138.9600     305
139.0400     189
139.1200     267
139.2000     343
139.2800     192
139.3600     190
139.4400     286
139.5200     173
139.6000     223
139.6800     210
139.7600     215
139.8400     234
139.9200     179
140.0000     127
140.0800     333
140.1600     165
140.2400     281
140.3200     275
140.4000     240
140.4800     282
140.5600     248
140.6400     157
140.7200     220
140.8000     213
140.8800     243
140.9600     229
141.0400     216
141.1200     245
141.2000     253
141.2800     219
141.3600     291
141.4400     181
141.5200     298
141.6000     236
141.6800     328
141.7600     262
141.8400     234
141.9200     254
142.0000     334
142.0800     208
142.1600     163
142.2400     200
142.3200     213
142.4000     300
142.4800     268
142.5600     427
142.6400     345
142.7200     329
142.8000     279
142.8800     288
142.9600     301
143.0400     265
143.1200     276
143.2000     350
143.2800     311
143.3600     350
143.4400     363
143.5200     306
143.6000     286
143.6800     393
143.7600     193
143.8400     320
143.9200     247
144.0000     310
144.0800     328
144.1600     238
144.2400     320
144.3200     379
144.4000     332
144.4800     257
144.5600     339
144.6400     319
144.7200     235
144.8000     348
144.8800     284
144.9600     348
145.0400     273
145.1200     267
145.2000     277
145.2800     295
145.3600     331
145.4400     388
145.5200     397
145.6000     315
145.6800     283
145.7600     250
145.8400     236
145.9200     232
146.0000     327
146.0800     385
146.1600     301
146.2400     254
146.3200     258
146.4000     316
146.4800     408
146.5600     239
146.6400     263
146.7200     359
146.8000     306
146.8800     304
146.9600     401
147.0400     279
147.1200     291
147.2000     255
147.2800     347
147.3600     279
147.4400     359
147.5200     295
147.6000     279
147.6800     366
147.7600     301
147.8400     415
147.9200     344
148.0000     324
148.0800     338
148.1600     309
148.2400     483
148.3200     360
148.4000     389
148.4800     415
148.5600     376
148.6400     492
148.7200     360
148.8000     396
148.8800     439
148.9600     316
149.0400     419
149.1200     504
149.2000     474
149.2800     462
149.3600     343
149.4400     441
149.5200     460
149.6000     520
149.6800     388
149.7600     482
149.8400     418
149.9200     422
150.0000     406
150.0800     497
150.1600     468
150.2400     467
150.3200     447
150.4000     373
150.4800     459
150.5600     550
150.6400     511
150.7200     475
150.8000     510
150.8800     535
150.9600     528
151.0400     585
151.1200     638
151.2000     508
151.2800     698
151.3600     598
151.4400     660
151.5200     639
151.6000     697
151.6800     769
151.7600     752
151.8400     739
151.9200     827
152.0000     878
152.0800     774
152.1600     805
152.2400     909
152.3200     860
152.4000    1097
152.4800    1056
152.5600    1132
152.6400    1352
152.7200    1379
152.8000    1305
152.8800    1583
152.9600    1429
153.0400    1473
153.1200    1674
153.2000    1775
153.2800    1755
153.3600    1911
153.4400    1893
153.5200    2124
153.6000    2280
153.6800    2251
153.7600    2286
153.8400    2393
153.9200    2256
154.0000    2224
154.0800    2373
154.1600    2608
154.2400    2327
154.3200    2507
154.4000    2489
154.4800    2447
154.5600    2650
154.6400    2485
154.7200    2316
154.8000    2214
154.8800    2243
154.9600    2310
155.0400    2178
155.1200    1976
155.2000    2124
155.2800    2018
155.3600    1948
155.4400    1775
155.5200    1723
155.6000    1576
155.6800    1655
155.7600    1578
155.8400    1523
155.9200    1365
156.0000    1366
156.0800    1273
156.1600    1253
156.2400    1221
156.3200    1197
156.4000    1070
156.4800    1179
156.5600    1068
156.6400     979
156.7200    1120
156.8000     837
156.8800     953
156.9600     847
157.0400     789
157.1200     756
157.2000     662
157.2800     751
157.3600     732
157.4400     672
157.5200     529
157.6000     617
157.6800     716
157.7600     666
157.8400     571
157.9200     560
158.0000     515
158.0800     562
158.1600     607
158.2400     522
158.3200     543
158.4000     521
158.4800     555
158.5600     546
158.6400     541
158.7200     483
158.8000     423
158.8800     385
158.9600     428
159.0400     499
159.1200     417
159.2000     479
159.2800     479
159.3600     387
159.4400     397
159.5200     391
159.6000     457
159.6800     352
159.7600     400
159.8400     371
159.9200     425
160.0000     388
160.0800     371
160.1600     383
160.2400     324
160.3200     447
160.4000     418
160.4800     395
160.5600     392
160.6400     234
160.7200     302
160.8000     348
160.8800     268
160.9600     310
161.0400     259
161.1200     262
161.2000     360
161.2800     262
161.3600     294
161.4400     340
161.5200     302
161.6000     330
161.6800     378
161.7600     266
161.8400     351
161.9200     300
161.9800     253