File: XRD_Tool/XRD_Tool/bin/Debug/LDA_sample_name_56789_Psi-24_20180623-124001.txt
138.0000     215
138.0800     236
138.1600     225
138.2400     248
138.3200     147
138.4000     176
138.4800     192
138.5600     229
138.6400     253
138.7200     282
138.8000     196
138.8800     182
138.9600     118
139.0400     231
139.1200     248
139.2000     273
139.2800     239
139.3600     179
139.4400     312
139.5200     172
139.6000     212
139.6800     249
139.7600     262
139.8400     222
139.9200     186
140.0000     288
140.0800     179
140.1600     251
140.2400     285
140.3200     181
140.4000     283
140.4800     251
140.5600     270
140.6400     237
140.7200     272
140.8000     146
140.8800     327
140.9600     308
141.0400     276
141.1200     248
141.2000     241
141.2800     270
141.3600     234
141.4400     254
141.5200     246
141.6000     268
141.6800     242
141.7600     258
141.8400     262
141.9200     364
142.0000     292
142.0800     264
142.1600     310
142.2400     342
142.3200     280
142.4000     312
142.4800     233
142.5600     323
142.6400     225
142.7200     346
142.8000     243
142.8800     307
142.9600     391
143.0400     363
143.1200     278
143.2000     302
143.2800     270
143.3600     331
143.4400     276
143.5200     298
143.6000     307
143.6800     304
143.7600     321
143.8400     290
143.9200     411
144.0000     439
144.0800     291
144.1600     351
144.2400     360
144.3200     323
144.4000     285
144.4800     306
144.5600     326
144.6400     405
144.7200     290
144.8000     296
144.8800     329
144.9600     339
145.0400     349
145.1200     346
145.2000     303
145.2800     309
145.3600     424
145.4400     330
145.5200     397
145.6000     337
145.6800     324
145.7600     402
145.8400     255
145.9200     444
146.0000     308
146.0800     409
146.1600     326
146.2400     335
146.3200     419
146.4000     357
146.4800     312
146.5600     380
146.6400     341
146.7200     277
146.8000     404
146.8800     390
146.9600     404
147.0400     449
147.1200     381
147.2000     387
147.2800     432
147.3600     371
147.4400     416
147.5200     402
147.6000     370
147.6800     400
147.7600     378
147.8400     484
147.9200     446
148.0000     474
148.0800     322
148.1600     449
148.2400     412
148.3200     381
148.4000     342
148.4800     506
148.5600     461
148.6400     492
148.7200     410
148.8000     471
148.8800     375
148.9600     391
149.0400     391
149.1200     526
149.2000     431
149.2800     452
149.3600     488
149.4400     397
149.5200     385
149.6000     462
149.6800     400
149.7600     470
149.8400     396
149.9200     499
150.0000     392
150.0800     498
150.1600     556
150.2400     451
150.3200     422
150.4000     549
150.4800     468
150.5600     574
150.6400     603
150.7200     548
150.8000     453
150.8800     525
150.9600     519
151.0400     573
151.1200     677
151.2000     559
151.2800     704
151.3600     556
151.4400     610
151.5200     655
151.6000     561
151.6800     704
151.7600     734
151.8400     731
151.9200     832
152.0000     817
152.0800     788
152.1600     806
152.2400     845
152.3200     885
152.4000     965
152.4800    1110
152.5600    1001
152.6400    1128
152.7200    1124
152.8000    1275
152.8800    1372
152.9600    1430
153.0400    1218
153.1200    1531
153.2000    1599
153.2800    1627
153.3600    1856
153.4400    1852
153.5200    1882
153.6000    2154
153.6800    2007
153.7600    2229
153.8400    2239
153.9200    2249
154.0000    2201
154.0800    1970
154.1600    2385
154.2400    2350
154.3200    2424
154.4000    2275
154.4800    2310
154.5600    2376
154.6400    2282
154.7200    2378
154.8000    2303
154.8800    2245
154.9600    2170
155.0400    2273
155.1200    1885
155.2000    1933
155.2800    1822
155.3600    1849
155.4400    1713
155.5200    1644
155.6000    1510
155.6800    1536
155.7600    1458
155.8400    1568
155.9200    1394
156.0000    1456
156.0800    1179
156.1600    1349
156.2400    1272
156.3200    1279
156.4000    1094
156.4800    1176
156.5600    1043
156.6400     997
156.7200     922
156.8000     974
156.8800     966
156.9600     996
157.0400     877
157.1200     714
157.2000     751
157.2800     880
157.3600     607
157.4400     706
157.5200     660
157.6000     619
157.6800     755
157.7600     674
157.8400     734
157.9200     648
158.0000     639
158.0800     579
158.1600     652
158.2400     630
158.3200     598
158.4000     652
158.4800     576
158.5600     490
158.6400     587
158.7200     528
158.8000     459
158.8800     521
158.9600     620
159.0400     556
159.1200     550
159.2000     658
159.2800     442
159.3600     552
159.4400     506
159.5200     461
159.6000     489
159.6800     462
159.7600     474
159.8400     495
159.9200     509
160.0000     379
160.0800     643
160.1600     444
160.2400     458
160.3200     534
160.4000     473
160.4800     451
160.5600     447
160.6400     455
160.7200     484
160.8000     350
160.8800     390
160.9600     414
161.0400     422
161.1200     409
161.2000     458
161.2800     425
161.3600     433
161.4400     437
161.5200     457
161.6000     365
161.6800     414
161.7600     428
161.8400     368
161.9200     428
161.9800     385