File: XRD_Tool/XRD_Tool/bin/Debug/LDA_sample_name_56789_Psi-0_20180623-123948.txt
138.0000     157
138.0800     221
138.1600     209
138.2400     167
138.3200     211
138.4000     195
138.4800     215
138.5600     167
138.6400     301
138.7200     213
138.8000     202
138.8800     222
138.9600     189
139.0400     182
139.1200     112
139.2000     193
139.2800     155
139.3600     184
139.4400     285
139.5200     248
139.6000     202
139.6800     184
139.7600     219
139.8400     217
139.9200     263
140.0000     202
140.0800     129
140.1600     200
140.2400     237
140.3200     184
140.4000     135
140.4800     175
140.5600     232
140.6400     221
140.7200     232
140.8000     268
140.8800     254
140.9600     168
141.0400     220
141.1200     153
141.2000     168
141.2800     167
141.3600     155
141.4400     255
141.5200     165
141.6000     233
141.6800     167
141.7600     275
141.8400     176
141.9200     203
142.0000     254
142.0800     239
142.1600     306
142.2400     238
142.3200     169
142.4000     254
142.4800     341
142.5600     324
142.6400     225
142.7200     166
142.8000     216
142.8800     224
142.9600     273
143.0400     295
143.1200     294
143.2000     187
143.2800     289
143.3600     224
143.4400     213
143.5200     220
143.6000     270
143.6800     243
143.7600     342
143.8400     185
143.9200     232
144.0000     235
144.0800     265
144.1600     231
144.2400     261
144.3200     278
144.4000     242
144.4800     262
144.5600     292
144.6400     249
144.7200     192
144.8000     363
144.8800     320
144.9600     311
145.0400     248
145.1200     261
145.2000     285
145.2800     287
145.3600     216
145.4400     219
145.5200     344
145.6000     181
145.6800     214
145.7600     273
145.8400     269
145.9200     306
146.0000     209
146.0800     180
146.1600     169
146.2400     265
146.3200     238
146.4000     192
146.4800     330
146.5600     294
146.6400     304
146.7200     288
146.8000     393
146.8800     262
146.9600     362
147.0400     239
147.1200     284
147.2000     363
147.2800     271
147.3600     296
147.4400     331
147.5200     320
147.6000     357
147.6800     251
147.7600     307
147.8400     339
147.9200     345
148.0000     400
148.0800     397
148.1600     335
148.2400     295
148.3200     278
148.4000     367
148.4800     430
148.5600     379
148.6400     280
148.7200     385
148.8000     335
148.8800     387
148.9600     479
149.0400     402
149.1200     459
149.2000     440
149.2800     474
149.3600     389
149.4400     431
149.5200     440
149.6000     504
149.6800     472
149.7600     424
149.8400     322
149.9200     545
150.0000     518
150.0800     499
150.1600     459
150.2400     470
150.3200     517
150.4000     421
150.4800     506
150.5600     459
150.6400     422
150.7200     532
150.8000     501
150.8800     578
150.9600     577
151.0400     545
151.1200     627
151.2000     676
151.2800     586
151.3600     749
151.4400     681
151.5200     646
151.6000     748
151.6800     879
151.7600     725
151.8400     906
151.9200     835
152.0000     962
152.0800    1044
152.1600     955
152.2400    1001
152.3200     994
152.4000    1140
152.4800    1309
152.5600    1235
152.6400    1410
152.7200    1424
152.8000    1632
152.8800    1581
152.9600    1765
153.0400    1815
153.1200    1899
153.2000    2008
153.2800    1942
153.3600    2249
153.4400    2202
153.5200    2383
153.6000    2589
153.6800    2444
153.7600    2510
153.8400    2683
153.9200    2703
154.0000    2632
154.0800    2592
154.1600    2593
154.2400    2733
154.3200    2633
154.4000    2530
154.4800    2510
154.5600    2625
154.6400    2311
154.7200    2230
154.8000    2239
154.8800    2079
154.9600    2315
155.0400    2189
155.1200    2027
155.2000    1893
155.2800    1745
155.3600    1767
155.4400    1589
155.5200    1590
155.6000    1590
155.6800    1503
155.7600    1388
155.8400    1413
155.9200    1169
156.0000    1167
156.0800    1152
156.1600    1019
156.2400    1058
156.3200    1073
156.4000     968
156.4800     926
156.5600     802
156.6400     982
156.7200     807
156.8000     783
156.8800     729
156.9600     642
157.0400     810
157.1200     616
157.2000     649
157.2800     601
157.3600     516
157.4400     524
157.5200     548
157.6000     509
157.6800     593
157.7600     550
157.8400     588
157.9200     514
158.0000     600
158.0800     508
158.1600     493
158.2400     464
158.3200     405
158.4000     395
158.4800     411
158.5600     505
158.6400     487
158.7200     434
158.8000     374
158.8800     372
158.9600     308
159.0400     315
159.1200     330
159.2000     464
159.2800     436
159.3600     355
159.4400     385
159.5200     307
159.6000     399
159.6800     309
159.7600     405
159.8400     279
159.9200     257
160.0000     327
160.0800     403
160.1600     299
160.2400     361
160.3200     308
160.4000     385
160.4800     284
160.5600     324
160.6400     234
160.7200     361
160.8000     312
160.8800     377
160.9600     238
161.0400     284
161.1200     321
161.2000     223
161.2800     296
161.3600     206
161.4400     332
161.5200     276
161.6000     184
161.6800     306
161.7600     317
161.8400     246
161.9200     203
161.9800     253