File: XRD_Tool/XRD_Tool/bin/Debug/LDA_sample_name_56789_Psi-15_20180603-122805.txt
128.0000     255
128.0800     278
128.1600     223
128.2400     241
128.3200     254
128.4000     233
128.4800     285
128.5600     260
128.6400     243
128.7200     241
128.8000     273
128.8800     257
128.9600     233
129.0400     278
129.1200     256
129.2000     228
129.2800     236
129.3600     248
129.4400     250
129.5200     285
129.6000     265
129.6800     222
129.7600     296
129.8400     280
129.9200     250
130.0000     240
130.0800     270
130.1600     271
130.2400     251
130.3200     262
130.4000     277
130.4800     270
130.5600     283
130.6400     274
130.7200     251
130.8000     255
130.8800     258
130.9600     271
131.0400     266
131.1200     252
131.2000     280
131.2800     261
131.3600     256
131.4400     244
131.5200     240
131.6000     291
131.6800     253
131.7600     257
131.8400     259
131.9200     258
132.0000     250
132.0800     237
132.1600     270
132.2400     261
132.3200     267
132.4000     259
132.4800     284
132.5600     238
132.6400     265
132.7200     281
132.8000     274
132.8800     248
132.9600     297
133.0400     264
133.1200     255
133.2000     286
133.2800     260
133.3600     259
133.4400     262
133.5200     261
133.6000     240
133.6800     291
133.7600     245
133.8400     273
133.9200     258
134.0000     301
134.0800     272
134.1600     288
134.2400     261
134.3200     281
134.4000     286
134.4800     250
134.5600     240
134.6400     260
134.7200     278
134.8000     244
134.8800     230
134.9600     260
135.0400     286
135.1200     263
135.2000     262
135.2800     296
135.3600     267
135.4400     237
135.5200     268
135.6000     278
135.6800     282
135.7600     272
135.8400     236
135.9200     278
136.0000     266
136.0800     259
136.1600     279
136.2400     259
136.3200     245
136.4000     280
136.4800     249
136.5600     243
136.6400     261
136.7200     262
136.8000     248
136.8800     245
136.9600     286
137.0400     274
137.1200     286
137.2000     278
137.2800     272
137.3600     263
137.4400     254
137.5200     266
137.6000     282
137.6800     252
137.7600     283
137.8400     281
137.9200     290
138.0000     304
138.0800     276
138.1600     262
138.2400     270
138.3200     282
138.4000     275
138.4800     299
138.5600     272
138.6400     277
138.7200     286
138.8000     269
138.8800     269
138.9600     257
139.0400     270
139.1200     256
139.2000     282
139.2800     261
139.3600     257
139.4400     249
139.5200     260
139.6000     291
139.6800     288
139.7600     282
139.8400     313
139.9200     271
140.0000     281
140.0800     285
140.1600     255
140.2400     264
140.3200     297
140.4000     279
140.4800     262
140.5600     267
140.6400     321
140.7200     277
140.8000     246
140.8800     262
140.9600     313
141.0400     266
141.1200     269
141.2000     265
141.2800     295
141.3600     304
141.4400     289
141.5200     270
141.6000     285
141.6800     254
141.7600     283
141.8400     262
141.9200     289
142.0000     294
142.0800     249
142.1600     274
142.2400     278
142.3200     299
142.4000     276
142.4800     299
142.5600     250
142.6400     268
142.7200     258
142.8000     271
142.8800     262
142.9600     251
143.0400     269
143.1200     259
143.2000     269
143.2800     268
143.3600     280
143.4400     284
143.5200     281
143.6000     281
143.6800     290
143.7600     269
143.8400     301
143.9200     287
144.0000     273
144.0800     272
144.1600     287
144.2400     251
144.3200     288
144.4000     287
144.4800     313
144.5600     256
144.6400     275
144.7200     271
144.8000     280
144.8800     256
144.9600     291
145.0400     274
145.1200     314
145.2000     251
145.2800     284
145.3600     288
145.4400     264
145.5200     270
145.6000     277
145.6800     282
145.7600     241
145.8400     259
145.9200     292
146.0000     263
146.0800     244
146.1600     256
146.2400     280
146.3200     241
146.4000     286
146.4800     261
146.5600     282
146.6400     261
146.7200     300
146.8000     281
146.8800     317
146.9600     282
147.0400     256
147.1200     295
147.2000     289
147.2800     273
147.3600     293
147.4400     284
147.5200     272
147.6000     249
147.6800     285
147.7600     289
147.8400     295
147.9200     271
148.0000     258
148.0800     308
148.1600     291
148.2400     276
148.3200     260
148.4000     247
148.4800     324
148.5600     295
148.6400     277
148.7200     287
148.8000     269
148.8800     260
148.9600     277
149.0400     329
149.1200     261
149.2000     270
149.2800     296
149.3600     302
149.4400     250
149.5200     272
149.6000     309
149.6800     307
149.7600     250
149.8400     270
149.9200     281
150.0000     312
150.0800     304
150.1600     288
150.2400     303
150.3200     285
150.4000     296
150.4800     251
150.5600     288
150.6400     294
150.7200     285
150.8000     291
150.8800     262
150.9600     311
151.0400     305
151.1200     295
151.2000     289
151.2800     269
151.3600     283
151.4400     287
151.5200     281
151.6000     278
151.6800     280
151.7600     275
151.8400     265
151.9200     330
151.9600     272