File: XRD_Tool/XRD_Tool/bin/Debug/LDA_sample_name_56789_Psi-30_20180603-122827.txt
128.0000     248
128.0800     269
128.1600     229
128.2400     241
128.3200     229
128.4000     283
128.4800     248
128.5600     247
128.6400     254
128.7200     266
128.8000     258
128.8800     244
128.9600     236
129.0400     252
129.1200     279
129.2000     234
129.2800     298
129.3600     270
129.4400     223
129.5200     231
129.6000     262
129.6800     249
129.7600     258
129.8400     224
129.9200     244
130.0000     260
130.0800     274
130.1600     226
130.2400     281
130.3200     243
130.4000     253
130.4800     268
130.5600     240
130.6400     255
130.7200     260
130.8000     225
130.8800     254
130.9600     251
131.0400     238
131.1200     276
131.2000     280
131.2800     254
131.3600     264
131.4400     247
131.5200     250
131.6000     238
131.6800     252
131.7600     247
131.8400     275
131.9200     274
132.0000     265
132.0800     263
132.1600     286
132.2400     309
132.3200     285
132.4000     271
132.4800     280
132.5600     300
132.6400     268
132.7200     276
132.8000     251
132.8800     284
132.9600     278
133.0400     260
133.1200     251
133.2000     261
133.2800     267
133.3600     268
133.4400     283
133.5200     275
133.6000     255
133.6800     267
133.7600     279
133.8400     268
133.9200     265
134.0000     268
134.0800     292
134.1600     255
134.2400     254
134.3200     279
134.4000     254
134.4800     253
134.5600     288
134.6400     268
134.7200     265
134.8000     246
134.8800     274
134.9600     287
135.0400     278
135.1200     261
135.2000     235
135.2800     269
135.3600     296
135.4400     288
135.5200     265
135.6000     256
135.6800     259
135.7600     269
135.8400     265
135.9200     257
136.0000     273
136.0800     274
136.1600     274
136.2400     266
136.3200     274
136.4000     268
136.4800     258
136.5600     258
136.6400     258
136.7200     247
136.8000     276
136.8800     259
136.9600     235
137.0400     252
137.1200     279
137.2000     242
137.2800     264
137.3600     270
137.4400     311
137.5200     298
137.6000     273
137.6800     288
137.7600     259
137.8400     308
137.9200     294
138.0000     277
138.0800     290
138.1600     283
138.2400     292
138.3200     263
138.4000     265
138.4800     305
138.5600     304
138.6400     262
138.7200     265
138.8000     278
138.8800     286
138.9600     288
139.0400     282
139.1200     267
139.2000     277
139.2800     270
139.3600     262
139.4400     279
139.5200     278
139.6000     292
139.6800     261
139.7600     292
139.8400     262
139.9200     296
140.0000     258
140.0800     280
140.1600     298
140.2400     272
140.3200     303
140.4000     280
140.4800     255
140.5600     271
140.6400     298
140.7200     277
140.8000     269
140.8800     269
140.9600     245
141.0400     295
141.1200     273
141.2000     279
141.2800     282
141.3600     256
141.4400     278
141.5200     274
141.6000     250
141.6800     275
141.7600     250
141.8400     262
141.9200     285
142.0000     288
142.0800     284
142.1600     283
142.2400     256
142.3200     265
142.4000     248
142.4800     306
142.5600     255
142.6400     283
142.7200     277
142.8000     269
142.8800     269
142.9600     310
143.0400     294
143.1200     282
143.2000     289
143.2800     269
143.3600     269
143.4400     271
143.5200     281
143.6000     285
143.6800     285
143.7600     252
143.8400     284
143.9200     277
144.0000     266
144.0800     235
144.1600     272
144.2400     281
144.3200     295
144.4000     280
144.4800     303
144.5600     300
144.6400     264
144.7200     270
144.8000     265
144.8800     262
144.9600     253
145.0400     271
145.1200     291
145.2000     239
145.2800     256
145.3600     265
145.4400     255
145.5200     275
145.6000     267
145.6800     248
145.7600     272
145.8400     262
145.9200     267
146.0000     292
146.0800     258
146.1600     278
146.2400     295
146.3200     263
146.4000     270
146.4800     296
146.5600     254
146.6400     272
146.7200     225
146.8000     260
146.8800     295
146.9600     254
147.0400     274
147.1200     269
147.2000     281
147.2800     288
147.3600     260
147.4400     253
147.5200     228
147.6000     259
147.6800     272
147.7600     299
147.8400     269
147.9200     260
148.0000     275
148.0800     276
148.1600     265
148.2400     288
148.3200     277
148.4000     275
148.4800     266
148.5600     269
148.6400     250
148.7200     301
148.8000     288
148.8800     301
148.9600     290
149.0400     270
149.1200     280
149.2000     278
149.2800     287
149.3600     286
149.4400     263
149.5200     290
149.6000     265
149.6800     270
149.7600     280
149.8400     298
149.9200     265
150.0000     281
150.0800     275
150.1600     283
150.2400     292
150.3200     260
150.4000     299
150.4800     268
150.5600     305
150.6400     271
150.7200     297
150.8000     297
150.8800     314
150.9600     297
151.0400     268
151.1200     278
151.2000     275
151.2800     321
151.3600     288
151.4400     289
151.5200     285
151.6000     287
151.6800     288
151.7600     293
151.8400     287
151.9200     287
151.9600     281