File: XRD_Tool/XRD_Tool/bin/Debug/LDA_sample_name_56789_Psi-0_20180623-000227.txt
141.0000     204
141.0800     306
141.1600     288
141.2400     241
141.3200     193
141.4000     227
141.4800     217
141.5600     152
141.6400     301
141.7200     301
141.8000     241
141.8800     257
141.9600     123
142.0400     294
142.1200     233
142.2000     283
142.2800     232
142.3600     200
142.4400     271
142.5200     183
142.6000     255
142.6800     202
142.7600     202
142.8400     277
142.9200     256
143.0000     135
143.0800     223
143.1600     266
143.2400     255
143.3200     182
143.4000     246
143.4800     282
143.5600     336
143.6400     312
143.7200     219
143.8000     211
143.8800     264
143.9600     265
144.0400     304
144.1200     256
144.2000     361
144.2800     252
144.3600     281
144.4400     335
144.5200     244
144.6000     197
144.6800     199
144.7600     262
144.8400     238
144.9200     318
145.0000     314
145.0800     259
145.1600     377
145.2400     346
145.3200     311
145.4000     354
145.4800     223
145.5600     279
145.6400     222
145.7200     274
145.8000     281
145.8800     375
145.9600     357
146.0400     306
146.1200     375
146.2000     322
146.2800     331
146.3600     333
146.4400     384
146.5200     296
146.6000     375
146.6800     316
146.7600     295
146.8400     422
146.9200     449
147.0000     420
147.0800     315
147.1600     357
147.2400     227
147.3200     349
147.4000     360
147.4800     305
147.5600     355
147.6400     322
147.7200     313
147.8000     358
147.8800     341
147.9600     374
148.0400     390
148.1200     311
148.2000     393
148.2800     359
148.3600     341
148.4400     394
148.5200     368
148.6000     423
148.6800     384
148.7600     446
148.8400     373
148.9200     365
149.0000     288
149.0800     388
149.1600     230
149.2400     351
149.3200     342
149.4000     352
149.4800     419
149.5600     381
149.6400     353
149.7200     390
149.8000     415
149.8800     406
149.9600     319
150.0400     415
150.1200     332
150.2000     460
150.2800     568
150.3600     463
150.4400     607
150.5200     587
150.6000     569
150.6800     468
150.7600     487
150.8400     711
150.9200     566
151.0000     648
151.0800     644
151.1600     657
151.2400     727
151.3200     762
151.4000     713
151.4800     792
151.5600     801
151.6400     670
151.7200     802
151.8000     869
151.8800     999
151.9600     910
152.0400     996
152.1200    1021
152.2000    1089
152.2800    1228
152.3600    1156
152.4400    1300
152.5200    1448
152.6000    1324
152.6800    1430
152.7600    1583
152.8400    1660
152.9200    1792
153.0000    1877
153.0800    1827
153.1600    2120
153.2400    2106
153.3200    2335
153.4000    2337
153.4800    2367
153.5600    2615
153.6400    2601
153.7200    2656
153.8000    2498
153.8800    2664
153.9600    2661
154.0400    2808
154.1200    2660
154.2000    2623
154.2800    2607
154.3600    2582
154.4400    2748
154.5200    2468
154.6000    2564
154.6800    2521
154.7600    2441
154.8400    2148
154.9200    2227
155.0000    2147
155.0800    2140
155.1600    1923
155.2400    1872
155.3200    1743
155.4000    1757
155.4800    1736
155.5600    1612
155.6400    1683
155.7200    1503
155.8000    1495
155.8800    1359
155.9600    1267
156.0400    1256
156.1200    1223
156.2000    1249
156.2800    1035
156.3600    1119
156.4400    1019
156.5200    1013
156.6000     913
156.6800     796
156.7600     846
156.8400     871
156.9200     695
157.0000     707
157.0800     813
157.1600     743
157.2400     820
157.3200     755
157.4000     628
157.4800     667
157.5600     722
157.6400     507
157.7200     545
157.8000     711
157.8800     609
157.9600     568
158.0400     514
158.1200     583
158.2000     544
158.2800     522
158.3600     542
158.4400     527
158.5200     454
158.6000     430
158.6800     597
158.7600     524
158.8400     481
158.9200     468
159.0000     497
159.0800     424
159.1600     355
159.2400     498
159.3200     475
159.4000     364
159.4800     367
159.5600     397
159.6400     403
159.7200     394
159.8000     336
159.8800     441
159.9600     420
160.0400     321
160.1200     437
160.2000     315
160.2800     346
160.3600     390
160.4400     325
160.5200     259
160.6000     374
160.6800     432
160.7600     431
160.8400     423
160.9200     308
161.0000     363
161.0800     385
161.1600     417
161.2400     308
161.3200     371
161.4000     320
161.4800     387
161.5600     315
161.6400     317
161.7200     415
161.8000     292
161.8800     348
161.9600     337
162.0400     212
162.1200     419
162.2000     258
162.2800     458
162.3600     406
162.4400     351
162.5200     288
162.6000     264
162.6800     251
162.7600     268
162.8400     348
162.9200     382
163.0000     359
163.0800     251
163.1600     330
163.2400     282
163.3200     321
163.4000     255
163.4800     201
163.5600     322
163.6400     224
163.7200     314
163.8000     329
163.8800     292
163.9600     279
164.0400     218
164.1200     262
164.2000     350
164.2800     279
164.3600     311
164.4400     327
164.5200     219
164.6000     211
164.6800     278
164.7600     274
164.8400     233
164.9200     252
164.9800     334