File: XRD_Tool/XRD_Tool/bin/Debug/LDA_sample_name_56789_Psi-0_20180603-123016.txt
143.0000     242
143.0800     284
143.1600     252
143.2400     243
143.3200     252
143.4000     265
143.4800     268
143.5600     254
143.6400     271
143.7200     270
143.8000     270
143.8800     262
143.9600     291
144.0400     246
144.1200     271
144.2000     284
144.2800     306
144.3600     256
144.4400     269
144.5200     264
144.6000     280
144.6800     234
144.7600     257
144.8400     235
144.9200     245
145.0000     276
145.0800     246
145.1600     270
145.2400     244
145.3200     256
145.4000     248
145.4800     252
145.5600     221
145.6400     276
145.7200     257
145.8000     260
145.8800     261
145.9600     244
146.0400     266
146.1200     300
146.2000     269
146.2800     269
146.3600     239
146.4400     261
146.5200     253
146.6000     261
146.6800     267
146.7600     258
146.8400     277
146.9200     250
147.0000     243
147.0800     280
147.1600     246
147.2400     251
147.3200     273
147.4000     301
147.4800     293
147.5600     292
147.6400     297
147.7200     267
147.8000     280
147.8800     272
147.9600     277
148.0400     283
148.1200     308
148.2000     283
148.2800     315
148.3600     289
148.4400     259
148.5200     327
148.6000     270
148.6800     267
148.7600     280
148.8400     307
148.9200     261
149.0000     294
149.0800     296
149.1600     276
149.2400     290
149.3200     300
149.4000     283
149.4800     308
149.5600     287
149.6400     297
149.7200     297
149.8000     320
149.8800     323
149.9600     326
150.0400     287
150.1200     309
150.2000     312
150.2800     327
150.3600     335
150.4400     337
150.5200     323
150.6000     332
150.6800     349
150.7600     359
150.8400     284
150.9200     317
151.0000     349
151.0800     329
151.1600     339
151.2400     368
151.3200     359
151.4000     347
151.4800     371
151.5600     362
151.6400     366
151.7200     363
151.8000     413
151.8800     369
151.9600     418
152.0400     396
152.1200     411
152.2000     413
152.2800     418
152.3600     436
152.4400     527
152.5200     461
152.6000     551
152.6800     546
152.7600     541
152.8400     536
152.9200     602
153.0000     593
153.0800     642
153.1600     677
153.2400     704
153.3200     687
153.4000     710
153.4800     731
153.5600     790
153.6400     737
153.7200     749
153.8000     764
153.8800     762
153.9600     806
154.0400     717
154.1200     729
154.2000     820
154.2800     810
154.3600     777
154.4400     767
154.5200     771
154.6000     743
154.6800     767
154.7600     737
154.8400     706
154.9200     693
155.0000     687
155.0800     682
155.1600     652
155.2400     608
155.3200     643
155.4000     570
155.4800     611
155.5600     584
155.6400     565
155.7200     578
155.8000     505
155.8800     468
155.9600     536
156.0400     474
156.1200     443
156.2000     506
156.2800     454
156.3600     447
156.4400     451
156.5200     422
156.6000     418
156.6800     414
156.7600     388
156.8400     385
156.9200     395
157.0000     390
157.0800     411
157.1600     371
157.2400     354
157.3200     403
157.4000     344
157.4800     364
157.5600     360
157.6400     380
157.7200     341
157.8000     374
157.8800     356
157.9600     334
158.0400     345
158.1200     349
158.2000     326
158.2800     302
158.3600     302
158.4400     299
158.5200     321
158.6000     304
158.6800     313
158.7600     299
158.8400     308
158.9200     349
159.0000     332
159.0800     292
159.1600     315
159.2400     287
159.3200     313
159.4000     321
159.4800     315
159.5600     316
159.6400     295
159.7200     278
159.8000     320
159.8800     302
159.9600     322
160.0400     290
160.1200     256
160.2000     263
160.2800     279
160.3600     307
160.4400     295
160.5200     299
160.6000     300
160.6800     289
160.7600     284
160.8400     272
160.9200     345
161.0000     298
161.0800     280
161.1600     296
161.2400     284
161.3200     284
161.4000     265
161.4800     280
161.5600     287
161.6400     229
161.7200     266
161.8000     267
161.8800     292
161.9600     266
162.0400     252
162.1200     302
162.2000     291
162.2800     284
162.3600     242
162.4400     308
162.5200     268
162.6000     299
162.6800     271
162.7600     288
162.8400     287
162.9200     288
163.0000     283
163.0800     257
163.1600     284
163.2400     281
163.3200     294
163.4000     270
163.4800     302
163.5600     253
163.6400     282
163.7200     248
163.8000     259
163.8800     266
163.9600     296
164.0400     294
164.1200     276
164.2000     268
164.2800     249
164.3600     270
164.4400     275
164.5200     272
164.6000     282
164.6800     274
164.7600     264
164.8400     251
164.9200     243
165.0000     285
165.0800     276
165.1600     237
165.2400     260
165.3200     285
165.4000     279
165.4800     253
165.5600     280
165.6400     259
165.7200     265
165.8000     250
165.8800     290
165.9600     277
166.0400     266
166.1200     252
166.2000     239
166.2800     261
166.3600     266
166.4400     273
166.5200     259
166.6000     267
166.6800     247
166.7600     263
166.8400     260
166.9200     266
166.9600     262