File: XRD_Tool/XRD_Tool/bin/Debug/LDA_sample_name_56789_Psi-0_20180623-125423.txt
138.0000     295
138.0800     215
138.1600     228
138.2400     238
138.3200     204
138.4000     274
138.4800     250
138.5600     164
138.6400     253
138.7200     240
138.8000     268
138.8800     306
138.9600     205
139.0400     306
139.1200     311
139.2000     283
139.2800     218
139.3600     198
139.4400     326
139.5200     215
139.6000     335
139.6800     263
139.7600     296
139.8400     253
139.9200     262
140.0000     260
140.0800     213
140.1600     375
140.2400     233
140.3200     244
140.4000     183
140.4800     243
140.5600     301
140.6400     166
140.7200     251
140.8000     245
140.8800     199
140.9600     176
141.0400     191
141.1200     271
141.2000     302
141.2800     418
141.3600     314
141.4400     313
141.5200     235
141.6000     244
141.6800     295
141.7600     236
141.8400     262
141.9200     156
142.0000     339
142.0800     350
142.1600     420
142.2400     269
142.3200     339
142.4000     285
142.4800     295
142.5600     274
142.6400     292
142.7200     216
142.8000     368
142.8800     270
142.9600     355
143.0400     267
143.1200     306
143.2000     271
143.2800     346
143.3600     287
143.4400     368
143.5200     250
143.6000     365
143.6800     376
143.7600     346
143.8400     425
143.9200     284
144.0000     378
144.0800     347
144.1600     362
144.2400     380
144.3200     270
144.4000     340
144.4800     266
144.5600     330
144.6400     317
144.7200     374
144.8000     294
144.8800     345
144.9600     313
145.0400     339
145.1200     249
145.2000     338
145.2800     360
145.3600     215
145.4400     294
145.5200     373
145.6000     284
145.6800     265
145.7600     305
145.8400     384
145.9200     326
146.0000     292
146.0800     353
146.1600     373
146.2400     369
146.3200     312
146.4000     285
146.4800     444
146.5600     326
146.6400     342
146.7200     353
146.8000     456
146.8800     337
146.9600     373
147.0400     340
147.1200     337
147.2000     410
147.2800     345
147.3600     437
147.4400     337
147.5200     327
147.6000     480
147.6800     419
147.7600     475
147.8400     386
147.9200     493
148.0000     442
148.0800     321
148.1600     361
148.2400     364
148.3200     368
148.4000     344
148.4800     405
148.5600     414
148.6400     332
148.7200     373
148.8000     365
148.8800     445
148.9600     420
149.0400     410
149.1200     492
149.2000     533
149.2800     481
149.3600     435
149.4400     424
149.5200     395
149.6000     561
149.6800     443
149.7600     398
149.8400     457
149.9200     387
150.0000     450
150.0800     476
150.1600     472
150.2400     464
150.3200     473
150.4000     405
150.4800     451
150.5600     470
150.6400     564
150.7200     604
150.8000     618
150.8800     531
150.9600     657
151.0400     614
151.1200     605
151.2000     637
151.2800     752
151.3600     790
151.4400     747
151.5200     797
151.6000     805
151.6800     836
151.7600     806
151.8400     893
151.9200     969
152.0000     945
152.0800     944
152.1600     985
152.2400     954
152.3200    1118
152.4000    1226
152.4800    1090
152.5600    1395
152.6400    1442
152.7200    1504
152.8000    1639
152.8800    1899
152.9600    1986
153.0400    1853
153.1200    1953
153.2000    2128
153.2800    2073
153.3600    2126
153.4400    2328
153.5200    2494
153.6000    2648
153.6800    2720
153.7600    2654
153.8400    2792
153.9200    2783
154.0000    2622
154.0800    2508
154.1600    2698
154.2400    2759
154.3200    2622
154.4000    2632
154.4800    2488
154.5600    2688
154.6400    2421
154.7200    2230
154.8000    2365
154.8800    2328
154.9600    2410
155.0400    2181
155.1200    1951
155.2000    1865
155.2800    1790
155.3600    1950
155.4400    1746
155.5200    1609
155.6000    1330
155.6800    1580
155.7600    1428
155.8400    1447
155.9200    1232
156.0000    1293
156.0800    1083
156.1600    1226
156.2400    1144
156.3200    1059
156.4000     892
156.4800     989
156.5600     894
156.6400     824
156.7200     859
156.8000     812
156.8800     703
156.9600     728
157.0400     815
157.1200     762
157.2000     678
157.2800     690
157.3600     622
157.4400     623
157.5200     564
157.6000     569
157.6800     693
157.7600     674
157.8400     596
157.9200     513
158.0000     698
158.0800     523
158.1600     602
158.2400     635
158.3200     521
158.4000     479
158.4800     509
158.5600     530
158.6400     448
158.7200     545
158.8000     491
158.8800     433
158.9600     390
159.0400     481
159.1200     490
159.2000     464
159.2800     411
159.3600     450
159.4400     443
159.5200     359
159.6000     439
159.6800     317
159.7600     467
159.8400     309
159.9200     292
160.0000     349
160.0800     434
160.1600     341
160.2400     443
160.3200     343
160.4000     380
160.4800     468
160.5600     351
160.6400     316
160.7200     307
160.8000     321
160.8800     274
160.9600     324
161.0400     314
161.1200     312
161.2000     310
161.2800     266
161.3600     362
161.4400     390
161.5200     236
161.6000     346
161.6800     282
161.7600     330
161.8400     344
161.9200     305
161.9800     235