File: XRD_Tool/XRD_Tool/bin/Debug/SDD_sample_name_01234_Psi-0_20180602-103141.txt
 145.0000       30
 145.0400       37
 145.0800       40
 145.1200       41
 145.1600       31
 145.2000       42
 145.2400       41
 145.2800       43
 145.3200       36
 145.3600       36
 145.4000       33
 145.4400       37
 145.4800       48
 145.5200       39
 145.5600       30
 145.6000       34
 145.6400       34
 145.6800       38
 145.7200       37
 145.7600       49
 145.8000       47
 145.8400       32
 145.8800       32
 145.9200       29
 145.9600       44
 146.0000       44
 146.0400       51
 146.0800       48
 146.1200       43
 146.1600       48
 146.2000       42
 146.2400       39
 146.2800       40
 146.3200       43
 146.3600       45
 146.4000       37
 146.4400       40
 146.4800       38
 146.5200       40
 146.5600       42
 146.6000       33
 146.6400       34
 146.6800       35
 146.7200       51
 146.7600       46
 146.8000       43
 146.8400       33
 146.8800       30
 146.9200       40
 146.9600       31
 147.0000       40
 147.0400       50
 147.0800       34
 147.1200       47
 147.1600       43
 147.2000       34
 147.2400       41
 147.2800       35
 147.3200       41
 147.3600       44
 147.4000       51
 147.4400       35
 147.4800       38
 147.5200       49
 147.5600       46
 147.6000       40
 147.6400       47
 147.6800       40
 147.7200       55
 147.7600       40
 147.8000       43
 147.8400       47
 147.8800       50
 147.9200       42
 147.9600       52
 148.0000       51
 148.0400       58
 148.0800       44
 148.1200       43
 148.1600       40
 148.2000       55
 148.2400       39
 148.2800       41
 148.3200       43
 148.3600       37
 148.4000       56
 148.4400       39
 148.4800       42
 148.5200       37
 148.5600       44
 148.6000       38
 148.6400       46
 148.6800       49
 148.7200       36
 148.7600       45
 148.8000       36
 148.8400       52
 148.8800       37
 148.9200       51
 148.9600       47
 149.0000       44
 149.0400       54
 149.0800       35
 149.1200       53
 149.1600       41
 149.2000       42
 149.2400       38
 149.2800       55
 149.3200       43
 149.3600       52
 149.4000       55
 149.4400       49
 149.4800       49
 149.5200       44
 149.5600       46
 149.6000       45
 149.6400       52
 149.6800       52
 149.7200       44
 149.7600       47
 149.8000       53
 149.8400       50
 149.8800       57
 149.9200       52
 149.9600       48
 150.0000       47
 150.0400       44
 150.0800       50
 150.1200       57
 150.1600       60
 150.2000       63
 150.2400       59
 150.2800       56
 150.3200       69
 150.3600       69
 150.4000       68
 150.4400       60
 150.4800       56
 150.5200       78
 150.5600       57
 150.6000       62
 150.6400       60
 150.6800       71
 150.7200       59
 150.7600       46
 150.8000       79
 150.8400       56
 150.8800       63
 150.9200       71
 150.9600       54
 151.0000       60
 151.0400       66
 151.0800       70
 151.1200       54
 151.1600       74
 151.2000       81
 151.2400       79
 151.2800       83
 151.3200       87
 151.3600       82
 151.4000       85
 151.4400       76
 151.4800       84
 151.5200       99
 151.5600       82
 151.6000       87
 151.6400      101
 151.6800      116
 151.7200       97
 151.7600      109
 151.8000      104
 151.8400      121
 151.8800      124
 151.9200      107
 151.9600      104
 152.0000      102
 152.0400      108
 152.0800      120
 152.1200      129
 152.1600      126
 152.2000      108
 152.2400      114
 152.2800      118
 152.3200      112
 152.3600      146
 152.4000      141
 152.4400      146
 152.4800      151
 152.5200      155
 152.5600      133
 152.6000      128
 152.6400      148
 152.6800      159
 152.7200      163
 152.7600      179
 152.8000      191
 152.8400      180
 152.8800      174
 152.9200      179
 152.9600      168
 153.0000      207
 153.0400      213
 153.0800      216
 153.1200      197
 153.1600      256
 153.2000      246
 153.2400      216
 153.2800      255
 153.3200      282
 153.3600      249
 153.4000      261
 153.4400      266
 153.4800      291
 153.5200      305
 153.5600      286
 153.6000      325
 153.6400      315
 153.6800      365
 153.7200      357
 153.7600      365
 153.8000      379
 153.8400      353
 153.8800      368
 153.9200      392
 153.9600      413
 154.0000      418
 154.0400      418
 154.0800      426
 154.1200      435
 154.1600      429
 154.2000      421
 154.2400      458
 154.2800      424
 154.3200      438
 154.3600      462
 154.4000      452
 154.4400      471
 154.4800      486
 154.5200      514
 154.5600      491
 154.6000      471
 154.6400      493
 154.6800      492
 154.7200      453
 154.7600      482
 154.8000      453
 154.8400      489
 154.8800      443
 154.9200      475
 154.9600      477
 155.0000      469