File: XRD_Tool/XRD_Tool/bin/Debug/SDD_sample_name_01234_Psi-30_20180602-173106.txt
 150.0000      104
 150.0200      107
 150.0400       92
 150.0600      100
 150.0800      100
 150.1000      101
 150.1200      105
 150.1400       89
 150.1600      101
 150.1800       99
 150.2000      104
 150.2200      116
 150.2400      105
 150.2600      112
 150.2800      114
 150.3000       84
 150.3200      112
 150.3400      105
 150.3600      114
 150.3800      118
 150.4000       98
 150.4200      109
 150.4400      125
 150.4600      123
 150.4800      123
 150.5000      121
 150.5200      105
 150.5400      121
 150.5600      106
 150.5800      130
 150.6000      141
 150.6200      141
 150.6400      121
 150.6600      132
 150.6800      121
 150.7000      101
 150.7200      139
 150.7400      132
 150.7600      131
 150.7800      141
 150.8000      142
 150.8200      133
 150.8400      123
 150.8600      139
 150.8800      146
 150.9000      127
 150.9200      121
 150.9400      139
 150.9600      123
 150.9800      126
 151.0000      129
 151.0200      136
 151.0400      131
 151.0600      125
 151.0800      144
 151.1000      155
 151.1200      134
 151.1400      122
 151.1600      143
 151.1800      130
 151.2000      145
 151.2200      139
 151.2400      153
 151.2600      151
 151.2800      153
 151.3000      130
 151.3200      150
 151.3400      172
 151.3600      160
 151.3800      147
 151.4000      149
 151.4200      133
 151.4400      151
 151.4600      135
 151.4800      207
 151.5000      165
 151.5200      147
 151.5400      161
 151.5600      156
 151.5800      176
 151.6000      149
 151.6200      184
 151.6400      164
 151.6600      145
 151.6800      168
 151.7000      169
 151.7200      189
 151.7400      179
 151.7600      166
 151.7800      163
 151.8000      202
 151.8200      180
 151.8400      190
 151.8600      188
 151.8800      192
 151.9000      206
 151.9200      187
 151.9400      198
 151.9600      166
 151.9800      194
 152.0000      200
 152.0200      182
 152.0400      191
 152.0600      193
 152.0800      184
 152.1000      198
 152.1200      173
 152.1400      193
 152.1600      206
 152.1800      203
 152.2000      211
 152.2200      193
 152.2400      207
 152.2600      207
 152.2800      211
 152.3000      207
 152.3200      243
 152.3400      250
 152.3600      221
 152.3800      200
 152.4000      221
 152.4200      224
 152.4400      222
 152.4600      211
 152.4800      208
 152.5000      229
 152.5200      210
 152.5400      238
 152.5600      219
 152.5800      232
 152.6000      221
 152.6200      223
 152.6400      207
 152.6600      216
 152.6800      236
 152.7000      221
 152.7200      226
 152.7400      230
 152.7600      229
 152.7800      243
 152.8000      267
 152.8200      258
 152.8400      247
 152.8600      246
 152.8800      237
 152.9000      289
 152.9200      242
 152.9400      268
 152.9600      295
 152.9800      274
 153.0000      261
 153.0200      294
 153.0400      226
 153.0600      271
 153.0800      281
 153.1000      278
 153.1200      288
 153.1400      253
 153.1600      298
 153.1800      261
 153.2000      292
 153.2200      277
 153.2400      287
 153.2600      316
 153.2800      276
 153.3000      290
 153.3200      284
 153.3400      280
 153.3600      261
 153.3800      284
 153.4000      284
 153.4200      294
 153.4400      308
 153.4600      317
 153.4800      320
 153.5000      331
 153.5200      312
 153.5400      315
 153.5600      315
 153.5800      305
 153.6000      322
 153.6200      314
 153.6400      319
 153.6600      339
 153.6800      321
 153.7000      338
 153.7200      337
 153.7400      327
 153.7600      329
 153.7800      343
 153.8000      317
 153.8200      341
 153.8400      356
 153.8600      333
 153.8800      330
 153.9000      361
 153.9200      341
 153.9400      369
 153.9600      365
 153.9800      360
 154.0000      326
 154.0200      360
 154.0400      345
 154.0600      336
 154.0800      382
 154.1000      365
 154.1200      332
 154.1400      355
 154.1600      379
 154.1800      374
 154.2000      400
 154.2200      357
 154.2400      395
 154.2600      347
 154.2800      373
 154.3000      411
 154.3200      360
 154.3400      375
 154.3600      375
 154.3800      397
 154.4000      358
 154.4200      383
 154.4400      367
 154.4600      384
 154.4800      376
 154.5000      385
 154.5200      424
 154.5400      419
 154.5600      393
 154.5800      373
 154.6000      385
 154.6200      420
 154.6400      427
 154.6600      366
 154.6800      385
 154.7000      403
 154.7200      434
 154.7400      416
 154.7600      371
 154.7800      408
 154.8000      434
 154.8200      414
 154.8400      366
 154.8600      411
 154.8800      418
 154.9000      418
 154.9200      434
 154.9400      417
 154.9600      398
 154.9800      410
 155.0000      435