File: XRD_Tool/XRD_Tool/bin/Debug/SDD_sample_name_01234_Psi-0_20180602-173818.txt
 150.0000      109
 150.0200      127
 150.0400      127
 150.0600      131
 150.0800      132
 150.1000      131
 150.1200      113
 150.1400      133
 150.1600      137
 150.1800      134
 150.2000      153
 150.2200      127
 150.2400      139
 150.2600      135
 150.2800      157
 150.3000      152
 150.3200      144
 150.3400      128
 150.3600      138
 150.3800      154
 150.4000      143
 150.4200      148
 150.4400      130
 150.4600      156
 150.4800      151
 150.5000      131
 150.5200      154
 150.5400      148
 150.5600      145
 150.5800      154
 150.6000      150
 150.6200      166
 150.6400      149
 150.6600      183
 150.6800      153
 150.7000      167
 150.7200      153
 150.7400      152
 150.7600      157
 150.7800      187
 150.8000      151
 150.8200      151
 150.8400      174
 150.8600      157
 150.8800      162
 150.9000      168
 150.9200      167
 150.9400      165
 150.9600      175
 150.9800      184
 151.0000      177
 151.0200      186
 151.0400      177
 151.0600      171
 151.0800      162
 151.1000      187
 151.1200      191
 151.1400      176
 151.1600      186
 151.1800      205
 151.2000      178
 151.2200      189
 151.2400      178
 151.2600      182
 151.2800      184
 151.3000      190
 151.3200      210
 151.3400      214
 151.3600      198
 151.3800      199
 151.4000      179
 151.4200      183
 151.4400      186
 151.4600      216
 151.4800      199
 151.5000      220
 151.5200      237
 151.5400      232
 151.5600      219
 151.5800      183
 151.6000      223
 151.6200      247
 151.6400      213
 151.6600      194
 151.6800      250
 151.7000      245
 151.7200      212
 151.7400      234
 151.7600      251
 151.7800      251
 151.8000      237
 151.8200      232
 151.8400      221
 151.8600      257
 151.8800      256
 151.9000      231
 151.9200      258
 151.9400      259
 151.9600      264
 151.9800      254
 152.0000      257
 152.0200      249
 152.0400      244
 152.0600      233
 152.0800      261
 152.1000      242
 152.1200      284
 152.1400      256
 152.1600      275
 152.1800      273
 152.2000      247
 152.2200      273
 152.2400      287
 152.2600      265
 152.2800      276
 152.3000      266
 152.3200      271
 152.3400      271
 152.3600      298
 152.3800      272
 152.4000      293
 152.4200      270
 152.4400      266
 152.4600      313
 152.4800      323
 152.5000      292
 152.5200      330
 152.5400      325
 152.5600      308
 152.5800      334
 152.6000      316
 152.6200      312
 152.6400      327
 152.6600      295
 152.6800      336
 152.7000      320
 152.7200      323
 152.7400      322
 152.7600      340
 152.7800      334
 152.8000      355
 152.8200      335
 152.8400      327
 152.8600      338
 152.8800      338
 152.9000      350
 152.9200      359
 152.9400      323
 152.9600      353
 152.9800      334
 153.0000      331
 153.0200      378
 153.0400      344
 153.0600      349
 153.0800      354
 153.1000      325
 153.1200      376
 153.1400      370
 153.1600      400
 153.1800      380
 153.2000      391
 153.2200      370
 153.2400      388
 153.2600      369
 153.2800      404
 153.3000      406
 153.3200      423
 153.3400      404
 153.3600      402
 153.3800      415
 153.4000      386
 153.4200      475
 153.4400      429
 153.4600      410
 153.4800      400
 153.5000      430
 153.5200      373
 153.5400      423
 153.5600      430
 153.5800      426
 153.6000      427
 153.6200      436
 153.6400      432
 153.6600      400
 153.6800      407
 153.7000      427
 153.7200      429
 153.7400      447
 153.7600      462
 153.7800      449
 153.8000      451
 153.8200      458
 153.8400      451
 153.8600      448
 153.8800      449
 153.9000      451
 153.9200      399
 153.9400      480
 153.9600      467
 153.9800      452
 154.0000      447
 154.0200      448
 154.0400      481
 154.0600      470
 154.0800      430
 154.1000      486
 154.1200      473
 154.1400      507
 154.1600      475
 154.1800      490
 154.2000      447
 154.2200      465
 154.2400      496
 154.2600      459
 154.2800      503
 154.3000      504
 154.3200      474
 154.3400      464
 154.3600      475
 154.3800      498
 154.4000      496
 154.4200      512
 154.4400      447
 154.4600      472
 154.4800      451
 154.5000      497
 154.5200      453
 154.5400      494
 154.5600      480
 154.5800      486
 154.6000      498
 154.6200      494
 154.6400      451
 154.6600      489
 154.6800      480
 154.7000      479
 154.7200      497
 154.7400      467
 154.7600      488
 154.7800      477
 154.8000      494
 154.8200      511
 154.8400      473
 154.8600      480
 154.8800      487
 154.9000      485
 154.9200      478
 154.9400      485
 154.9600      480
 154.9800      503
 155.0000      481