File: XRD_Tool/XRD_Tool/bin/Debug/SDD_sample_name_01234_Psi-0_20180602-174148.txt
 150.0000      139
 150.0200      126
 150.0400      104
 150.0600      122
 150.0800      108
 150.1000      142
 150.1200      142
 150.1400      153
 150.1600      122
 150.1800      146
 150.2000      122
 150.2200      148
 150.2400      134
 150.2600      157
 150.2800      125
 150.3000      134
 150.3200      144
 150.3400      152
 150.3600      145
 150.3800      134
 150.4000      131
 150.4200      146
 150.4400      146
 150.4600      140
 150.4800      151
 150.5000      160
 150.5200      152
 150.5400      127
 150.5600      170
 150.5800      162
 150.6000      138
 150.6200      121
 150.6400      159
 150.6600      143
 150.6800      171
 150.7000      159
 150.7200      171
 150.7400      140
 150.7600      164
 150.7800      190
 150.8000      165
 150.8200      155
 150.8400      186
 150.8600      177
 150.8800      191
 150.9000      167
 150.9200      174
 150.9400      154
 150.9600      174
 150.9800      166
 151.0000      166
 151.0200      163
 151.0400      170
 151.0600      185
 151.0800      166
 151.1000      166
 151.1200      186
 151.1400      202
 151.1600      185
 151.1800      179
 151.2000      181
 151.2200      177
 151.2400      195
 151.2600      201
 151.2800      210
 151.3000      190
 151.3200      182
 151.3400      225
 151.3600      193
 151.3800      210
 151.4000      186
 151.4200      201
 151.4400      197
 151.4600      201
 151.4800      200
 151.5000      222
 151.5200      203
 151.5400      225
 151.5600      246
 151.5800      260
 151.6000      216
 151.6200      211
 151.6400      223
 151.6600      207
 151.6800      212
 151.7000      210
 151.7200      213
 151.7400      224
 151.7600      230
 151.7800      219
 151.8000      228
 151.8200      233
 151.8400      263
 151.8600      224
 151.8800      249
 151.9000      261
 151.9200      262
 151.9400      258
 151.9600      276
 151.9800      229
 152.0000      251
 152.0200      247
 152.0400      257
 152.0600      263
 152.0800      267
 152.1000      259
 152.1200      270
 152.1400      273
 152.1600      245
 152.1800      273
 152.2000      280
 152.2200      263
 152.2400      289
 152.2600      306
 152.2800      285
 152.3000      300
 152.3200      270
 152.3400      282
 152.3600      313
 152.3800      296
 152.4000      270
 152.4200      308
 152.4400      288
 152.4600      295
 152.4800      331
 152.5000      289
 152.5200      334
 152.5400      278
 152.5600      323
 152.5800      290
 152.6000      303
 152.6200      356
 152.6400      314
 152.6600      327
 152.6800      363
 152.7000      325
 152.7200      325
 152.7400      325
 152.7600      297
 152.7800      354
 152.8000      320
 152.8200      311
 152.8400      334
 152.8600      335
 152.8800      349
 152.9000      378
 152.9200      352
 152.9400      349
 152.9600      351
 152.9800      384
 153.0000      370
 153.0200      359
 153.0400      371
 153.0600      350
 153.0800      402
 153.1000      379
 153.1200      368
 153.1400      380
 153.1600      368
 153.1800      393
 153.2000      362
 153.2200      410
 153.2400      379
 153.2600      382
 153.2800      390
 153.3000      376
 153.3200      388
 153.3400      402
 153.3600      393
 153.3800      381
 153.4000      413
 153.4200      373
 153.4400      383
 153.4600      428
 153.4800      369
 153.5000      430
 153.5200      412
 153.5400      444
 153.5600      412
 153.5800      401
 153.6000      415
 153.6200      443
 153.6400      393
 153.6600      445
 153.6800      407
 153.7000      448
 153.7200      428
 153.7400      435
 153.7600      437
 153.7800      405
 153.8000      437
 153.8200      480
 153.8400      440
 153.8600      464
 153.8800      436
 153.9000      450
 153.9200      467
 153.9400      491
 153.9600      461
 153.9800      471
 154.0000      477
 154.0200      462
 154.0400      433
 154.0600      456
 154.0800      460
 154.1000      463
 154.1200      457
 154.1400      477
 154.1600      475
 154.1800      446
 154.2000      483
 154.2200      460
 154.2400      481
 154.2600      445
 154.2800      500
 154.3000      439
 154.3200      500
 154.3400      438
 154.3600      507
 154.3800      457
 154.4000      501
 154.4200      475
 154.4400      484
 154.4600      475
 154.4800      501
 154.5000      477
 154.5200      488
 154.5400      493
 154.5600      478
 154.5800      498
 154.6000      444
 154.6200      486
 154.6400      451
 154.6600      488
 154.6800      476
 154.7000      490
 154.7200      493
 154.7400      462
 154.7600      523
 154.7800      457
 154.8000      486
 154.8200      553
 154.8400      486
 154.8600      484
 154.8800      504
 154.9000      478
 154.9200      502
 154.9400      498
 154.9600      470
 154.9800      480
 155.0000      455