File: XRD_Tool/XRD_Tool/bin/Debug/SDD_sample_name_01234_Psi-0_20180602-131241.txt
 145.0000       45
 145.0400       38
 145.0800       36
 145.1200       37
 145.1600       43
 145.2000       30
 145.2400       21
 145.2800       32
 145.3200       38
 145.3600       36
 145.4000       40
 145.4400       33
 145.4800       38
 145.5200       37
 145.5600       28
 145.6000       33
 145.6400       48
 145.6800       28
 145.7200       40
 145.7600       43
 145.8000       43
 145.8400       35
 145.8800       46
 145.9200       36
 145.9600       39
 146.0000       38
 146.0400       34
 146.0800       32
 146.1200       47
 146.1600       37
 146.2000       45
 146.2400       26
 146.2800       42
 146.3200       35
 146.3600       38
 146.4000       30
 146.4400       35
 146.4800       31
 146.5200       38
 146.5600       39
 146.6000       46
 146.6400       49
 146.6800       49
 146.7200       36
 146.7600       38
 146.8000       40
 146.8400       45
 146.8800       38
 146.9200       53
 146.9600       46
 147.0000       39
 147.0400       39
 147.0800       51
 147.1200       38
 147.1600       42
 147.2000       44
 147.2400       31
 147.2800       44
 147.3200       38
 147.3600       45
 147.4000       59
 147.4400       46
 147.4800       41
 147.5200       54
 147.5600       37
 147.6000       34
 147.6400       35
 147.6800       48
 147.7200       48
 147.7600       36
 147.8000       39
 147.8400       38
 147.8800       43
 147.9200       41
 147.9600       42
 148.0000       44
 148.0400       42
 148.0800       46
 148.1200       37
 148.1600       37
 148.2000       41
 148.2400       53
 148.2800       48
 148.3200       43
 148.3600       55
 148.4000       33
 148.4400       48
 148.4800       44
 148.5200       51
 148.5600       48
 148.6000       43
 148.6400       46
 148.6800       34
 148.7200       48
 148.7600       45
 148.8000       45
 148.8400       39
 148.8800       52
 148.9200       49
 148.9600       45
 149.0000       45
 149.0400       45
 149.0800       53
 149.1200       54
 149.1600       33
 149.2000       50
 149.2400       57
 149.2800       37
 149.3200       50
 149.3600       36
 149.4000       55
 149.4400       50
 149.4800       57
 149.5200       48
 149.5600       55
 149.6000       42
 149.6400       53
 149.6800       35
 149.7200       54
 149.7600       55
 149.8000       59
 149.8400       62
 149.8800       51
 149.9200       58
 149.9600       50
 150.0000       60
 150.0400       55
 150.0800       63
 150.1200       62
 150.1600       44
 150.2000       51
 150.2400       59
 150.2800       45
 150.3200       56
 150.3600       55
 150.4000       53
 150.4400       64
 150.4800       65
 150.5200       62
 150.5600       55
 150.6000       71
 150.6400       55
 150.6800       72
 150.7200       53
 150.7600       63
 150.8000       68
 150.8400       53
 150.8800       84
 150.9200       67
 150.9600       80
 151.0000       67
 151.0400       71
 151.0800       86
 151.1200       83
 151.1600       61
 151.2000       73
 151.2400       70
 151.2800       83
 151.3200       85
 151.3600       88
 151.4000       75
 151.4400       73
 151.4800       94
 151.5200       84
 151.5600       89
 151.6000       87
 151.6400       99
 151.6800       83
 151.7200      108
 151.7600       95
 151.8000       98
 151.8400       96
 151.8800      104
 151.9200       99
 151.9600       85
 152.0000       93
 152.0400      112
 152.0800      124
 152.1200      130
 152.1600      124
 152.2000      135
 152.2400      126
 152.2800      141
 152.3200      126
 152.3600      133
 152.4000      154
 152.4400      145
 152.4800      141
 152.5200      139
 152.5600      126
 152.6000      175
 152.6400      176
 152.6800      151
 152.7200      169
 152.7600      155
 152.8000      181
 152.8400      195
 152.8800      187
 152.9200      222
 152.9600      191
 153.0000      214
 153.0400      226
 153.0800      215
 153.1200      213
 153.1600      237
 153.2000      233
 153.2400      246
 153.2800      246
 153.3200      242
 153.3600      275
 153.4000      269
 153.4400      300
 153.4800      303
 153.5200      309
 153.5600      329
 153.6000      319
 153.6400      331
 153.6800      357
 153.7200      348
 153.7600      364
 153.8000      352
 153.8400      383
 153.8800      361
 153.9200      387
 153.9600      399
 154.0000      431
 154.0400      400
 154.0800      410
 154.1200      413
 154.1600      452
 154.2000      465
 154.2400      461
 154.2800      458
 154.3200      428
 154.3600      454
 154.4000      475
 154.4400      474
 154.4800      475
 154.5200      483
 154.5600      469
 154.6000      480
 154.6400      481
 154.6800      459
 154.7200      478
 154.7600      485
 154.8000      486
 154.8400      468
 154.8800      482
 154.9200      451
 154.9600      491
 155.0000      437