File: XRD_Tool/XRD_Tool/bin/Debug/SDD_sample_name_01234_Psi-15_20180602-105658.txt
 145.0000       29
 145.0200       35
 145.0400       28
 145.0600       33
 145.0800       33
 145.1000       41
 145.1200       27
 145.1400       38
 145.1600       37
 145.1800       46
 145.2000       47
 145.2200       35
 145.2400       25
 145.2600       46
 145.2800       43
 145.3000       42
 145.3200       41
 145.3400       46
 145.3600       40
 145.3800       33
 145.4000       32
 145.4200       39
 145.4400       32
 145.4600       38
 145.4800       33
 145.5000       37
 145.5200       45
 145.5400       43
 145.5600       33
 145.5800       35
 145.6000       33
 145.6200       32
 145.6400       48
 145.6600       40
 145.6800       54
 145.7000       38
 145.7200       41
 145.7400       38
 145.7600       32
 145.7800       36
 145.8000       41
 145.8200       28
 145.8400       37
 145.8600       39
 145.8800       40
 145.9000       49
 145.9200       29
 145.9400       29
 145.9600       44
 145.9800       41
 146.0000       36
 146.0200       42
 146.0400       43
 146.0600       41
 146.0800       39
 146.1000       34
 146.1200       46
 146.1400       38
 146.1600       36
 146.1800       40
 146.2000       30
 146.2200       45
 146.2400       30
 146.2600       34
 146.2800       35
 146.3000       48
 146.3200       38
 146.3400       30
 146.3600       40
 146.3800       32
 146.4000       39
 146.4200       35
 146.4400       42
 146.4600       43
 146.4800       42
 146.5000       38
 146.5200       37
 146.5400       40
 146.5600       34
 146.5800       34
 146.6000       32
 146.6200       42
 146.6400       41
 146.6600       33
 146.6800       46
 146.7000       31
 146.7200       33
 146.7400       36
 146.7600       35
 146.7800       47
 146.8000       44
 146.8200       43
 146.8400       47
 146.8600       34
 146.8800       39
 146.9000       43
 146.9200       44
 146.9400       35
 146.9600       43
 146.9800       32
 147.0000       34
 147.0200       33
 147.0400       42
 147.0600       41
 147.0800       43
 147.1000       29
 147.1200       36
 147.1400       39
 147.1600       35
 147.1800       44
 147.2000       43
 147.2200       46
 147.2400       33
 147.2600       36
 147.2800       57
 147.3000       42
 147.3200       41
 147.3400       47
 147.3600       35
 147.3800       36
 147.4000       52
 147.4200       30
 147.4400       31
 147.4600       47
 147.4800       46
 147.5000       49
 147.5200       48
 147.5400       49
 147.5600       41
 147.5800       54
 147.6000       36
 147.6200       36
 147.6400       48
 147.6600       35
 147.6800       28
 147.7000       50
 147.7200       47
 147.7400       43
 147.7600       56
 147.7800       44
 147.8000       37
 147.8200       38
 147.8400       33
 147.8600       49
 147.8800       44
 147.9000       42
 147.9200       38
 147.9400       41
 147.9600       38
 147.9800       39
 148.0000       45
 148.0200       53
 148.0400       46
 148.0600       44
 148.0800       56
 148.1000       48
 148.1200       39
 148.1400       32
 148.1600       45
 148.1800       54
 148.2000       47
 148.2200       44
 148.2400       54
 148.2600       57
 148.2800       46
 148.3000       43
 148.3200       41
 148.3400       40
 148.3600       34
 148.3800       32
 148.4000       61
 148.4200       41
 148.4400       48
 148.4600       56
 148.4800       50
 148.5000       46
 148.5200       57
 148.5400       38
 148.5600       53
 148.5800       40
 148.6000       31
 148.6200       44
 148.6400       49
 148.6600       36
 148.6800       47
 148.7000       38
 148.7200       46
 148.7400       48
 148.7600       38
 148.7800       39
 148.8000       46
 148.8200       46
 148.8400       49
 148.8600       46
 148.8800       25
 148.9000       44
 148.9200       53
 148.9400       37
 148.9600       38
 148.9800       52
 149.0000       36
 149.0200       61
 149.0400       50
 149.0600       45
 149.0800