File: XRD_Tool/XRD_Tool/bin/Debug/SDD_sample_name_01234_Psi-0_20180602-173355.txt
 150.0000      128
 150.0200      121
 150.0400      118
 150.0600      146
 150.0800      140
 150.1000      113
 150.1200      128
 150.1400      139
 150.1600      143
 150.1800      138
 150.2000      129
 150.2200      140
 150.2400      135
 150.2600      118
 150.2800      137
 150.3000      153
 150.3200      142
 150.3400      147
 150.3600      127
 150.3800      138
 150.4000      138
 150.4200      140
 150.4400      150
 150.4600      132
 150.4800      140
 150.5000      138
 150.5200      176
 150.5400      160
 150.5600      122
 150.5800      129
 150.6000      145
 150.6200      156
 150.6400      154
 150.6600      149
 150.6800      150
 150.7000      170
 150.7200      146
 150.7400      164
 150.7600      161
 150.7800      165
 150.8000      152
 150.8200      167
 150.8400      136
 150.8600      171
 150.8800      181
 150.9000      171
 150.9200      167
 150.9400      167
 150.9600      180
 150.9800      166
 151.0000      167
 151.0200      182
 151.0400      160
 151.0600      178
 151.0800      174
 151.1000      182
 151.1200      167
 151.1400      195
 151.1600      174
 151.1800      192
 151.2000      155
 151.2200      174
 151.2400      195
 151.2600      206
 151.2800      186
 151.3000      181
 151.3200      177
 151.3400      213
 151.3600      225
 151.3800      217
 151.4000      182
 151.4200      213
 151.4400      209
 151.4600      210
 151.4800      215
 151.5000      204
 151.5200      198
 151.5400      224
 151.5600      200
 151.5800      227
 151.6000      261
 151.6200      212
 151.6400      199
 151.6600      236
 151.6800      218
 151.7000      220
 151.7200      215
 151.7400      219
 151.7600      207
 151.7800      239
 151.8000      230
 151.8200      216
 151.8400      220
 151.8600      229
 151.8800      260
 151.9000      247
 151.9200      246
 151.9400      229
 151.9600      262
 151.9800      263
 152.0000      254
 152.0200      243
 152.0400      274
 152.0600      239
 152.0800      256
 152.1000      266
 152.1200      250
 152.1400      262
 152.1600      268
 152.1800      256
 152.2000      277
 152.2200      281
 152.2400      263
 152.2600      301
 152.2800      251
 152.3000      291
 152.3200      260
 152.3400      263
 152.3600      304
 152.3800      278
 152.4000      313
 152.4200      295
 152.4400      286
 152.4600      328
 152.4800      310
 152.5000      291
 152.5200      334
 152.5400      310
 152.5600      357
 152.5800      313
 152.6000      334
 152.6200      322
 152.6400      335
 152.6600      309
 152.6800      317
 152.7000      315
 152.7200      328
 152.7400      352
 152.7600      313
 152.7800      318
 152.8000      333
 152.8200      345
 152.8400      355
 152.8600      334
 152.8800      366
 152.9000      346
 152.9200      335
 152.9400      373
 152.9600      370
 152.9800      362
 153.0000      345
 153.0200      380
 153.0400      368
 153.0600      359
 153.0800      395
 153.1000      349
 153.1200      359
 153.1400      384
 153.1600      385
 153.1800      347
 153.2000      409
 153.2200      403
 153.2400      365
 153.2600      412
 153.2800      396
 153.3000      387
 153.3200      400
 153.3400      368
 153.3600      399
 153.3800      353
 153.4000      365
 153.4200      416
 153.4400      394
 153.4600      389
 153.4800      413
 153.5000      436
 153.5200      420
 153.5400      407
 153.5600      403
 153.5800      386
 153.6000      422
 153.6200      413
 153.6400      459
 153.6600      435
 153.6800      421
 153.7000      460
 153.7200      426
 153.7400      443
 153.7600      430
 153.7800      477
 153.8000      423
 153.8200      426
 153.8400      423
 153.8600      472
 153.8800      406
 153.9000      438
 153.9200      442
 153.9400      416
 153.9600      439
 153.9800      497
 154.0000      443
 154.0200      411
 154.0400      444
 154.0600      482
 154.0800      460
 154.1000      501
 154.1200      476
 154.1400      454
 154.1600      462
 154.1800      431
 154.2000      454
 154.2200      490
 154.2400      443
 154.2600      481
 154.2800      482
 154.3000      464
 154.3200      483
 154.3400      498
 154.3600      492
 154.3800      485
 154.4000      500
 154.4200      486
 154.4400      522
 154.4600      498
 154.4800      499
 154.5000      492
 154.5200      459
 154.5400      520
 154.5600      511
 154.5800      476
 154.6000      509
 154.6200      496
 154.6400      470
 154.6600      500
 154.6800      472
 154.7000      445
 154.7200      480
 154.7400      451
 154.7600      472
 154.7800      488
 154.8000      471
 154.8200      531
 154.8400      472
 154.8600      494
 154.8800      461
 154.9000      475
 154.9200      475
 154.9400      494
 154.9600      465
 154.9800      506
 155.0000      487