File: XRD_Tool/XRD_Tool/bin/Debug/SDD_sample_name_001_Psi-30_20180528-025224.txt
 150.0000       62
 150.0400       44
 150.0800       82
 150.1200       64
 150.1600       63
 150.2000       61
 150.2400       56
 150.2800       76
 150.3200       72
 150.3600       68
 150.4000       53
 150.4400       60
 150.4800       65
 150.5200       83
 150.5600       56
 150.6000       59
 150.6400       62
 150.6800       69
 150.7200       56
 150.7600       74
 150.8000       76
 150.8400       58
 150.8800       68
 150.9200       69
 150.9600       79
 151.0000       70
 151.0400       68
 151.0800       72
 151.1200       70
 151.1600       75
 151.2000       60
 151.2400       77
 151.2800       89
 151.3200       78
 151.3600       85
 151.4000       80
 151.4400       92
 151.4800       73
 151.5200       91
 151.5600       86
 151.6000       83
 151.6400       71
 151.6800       91
 151.7200       94
 151.7600       94
 151.8000       86
 151.8400       94
 151.8800       94
 151.9200       87
 151.9600      104
 152.0000       88
 152.0400       86
 152.0800      100
 152.1200      106
 152.1600      111
 152.2000      106
 152.2400       96
 152.2800      108
 152.3200       98
 152.3600      107
 152.4000      110
 152.4400      110
 152.4800      120
 152.5200       95
 152.5600      137
 152.6000      142
 152.6400      130
 152.6800      118
 152.7200      126
 152.7600      125
 152.8000      138
 152.8400      155
 152.8800      128
 152.9200      158
 152.9600      159
 153.0000      167
 153.0400      164
 153.0800      174
 153.1200      148
 153.1600      170
 153.2000      207
 153.2400      173
 153.2800      206
 153.3200      195
 153.3600      182
 153.4000      218
 153.4400      207
 153.4800      218
 153.5200      221
 153.5600      215
 153.6000      246
 153.6400      257
 153.6800      228
 153.7200      246
 153.7600      276
 153.8000      289
 153.8400      269
 153.8800      267
 153.9200      275
 153.9600      307
 154.0000      296
 154.0400      297
 154.0800      306
 154.1200      298
 154.1600      350
 154.2000      339
 154.2400      344
 154.2800      344
 154.3200      368
 154.3600      368
 154.4000      386
 154.4400      370
 154.4800      379
 154.5200      396
 154.5600      424
 154.6000      399
 154.6400      378
 154.6800      403
 154.7200      395
 154.7600      436
 154.8000      425
 154.8400      442
 154.8800      476
 154.9200      435
 154.9600      424
 155.0000      445
 155.0400      455
 155.0800      440
 155.1200      438
 155.1600      464
 155.2000      438
 155.2400      428
 155.2800      428
 155.3200      402
 155.3600      424
 155.4000      444
 155.4400      469
 155.4800      408
 155.5200      427
 155.5600      392
 155.6000      422
 155.6400      392
 155.6800      394
 155.7200      383
 155.7600      382
 155.8000      382
 155.8400      364
 155.8800      365
 155.9200      339
 155.9600      385
 156.0000      348
 156.0400      372
 156.0800      326
 156.1200      349
 156.1600      342
 156.2000      336
 156.2400      343
 156.2800      347
 156.3200      278
 156.3600      302
 156.4000      280
 156.4400      286
 156.4800      280
 156.5200      275
 156.5600      266
 156.6000      257
 156.6400      267
 156.6800      273
 156.7200      242
 156.7600      244
 156.8000      211
 156.8400      248
 156.8800      214
 156.9200      213
 156.9600      212
 157.0000      208
 157.0400      227
 157.0800      214
 157.1200      205
 157.1600      186
 157.2000      189
 157.2400      201
 157.2800      181
 157.3200      193
 157.3600      177
 157.4000      178
 157.4400      153
 157.4800      184
 157.5200      177
 157.5600      171
 157.6000      168
 157.6400      150
 157.6800      155
 157.7200      173
 157.7600      141
 157.8000      165
 157.8400      130
 157.8800      112
 157.9200      130
 157.9600      112
 158.0000      136
 158.0400      107
 158.0800      117
 158.1200      124
 158.1600      142
 158.2000      121
 158.2400      120
 158.2800      102
 158.3200      129
 158.3600      114
 158.4000       98
 158.4400      111
 158.4800      132
 158.5200      134
 158.5600      106
 158.6000      110
 158.6400      131
 158.6800      110
 158.7200      110
 158.7600      102
 158.8000       97
 158.8400       97
 158.8800       88
 158.9200       87
 158.9600      100
 159.0000       96
 159.0400       96
 159.0800       99
 159.1200      105
 159.1600       77
 159.2000       92
 159.2400       79
 159.2800      101
 159.3200       83
 159.3600       80
 159.4000       74
 159.4400       85
 159.4800       92
 159.5200       99
 159.5600       69
 159.6000       76
 159.6400       79
 159.6800       71
 159.7200       86
 159.7600       85
 159.8000       88
 159.8400       82
 159.8800       79
 159.9200       83
 159.9600       76
 160.0000       61