File: XRD_Tool/XRD_Tool/bin/Debug/SDD_sample_name_01234_Psi-15_20180602-152502.txt
 145.0000       43
 145.0400       29
 145.0800       39
 145.1200       40
 145.1600       37
 145.2000       35
 145.2400       42
 145.2800       42
 145.3200       38
 145.3600       40
 145.4000       40
 145.4400       36
 145.4800       37
 145.5200       29
 145.5600       38
 145.6000       36
 145.6400       40
 145.6800       36
 145.7200       39
 145.7600       41
 145.8000       33
 145.8400       33
 145.8800       38
 145.9200       36
 145.9600       50
 146.0000       37
 146.0400       56
 146.0800       29
 146.1200       35
 146.1600       33
 146.2000       37
 146.2400       30
 146.2800       36
 146.3200       40
 146.3600       34
 146.4000       45
 146.4400       37
 146.4800       31
 146.5200       37
 146.5600       49
 146.6000       42
 146.6400       39
 146.6800       42
 146.7200       47
 146.7600       45
 146.8000       34
 146.8400       35
 146.8800       57
 146.9200       51
 146.9600       45
 147.0000       42
 147.0400       44
 147.0800       42
 147.1200       53
 147.1600       45
 147.2000       41
 147.2400       33
 147.2800       39
 147.3200       37
 147.3600       33
 147.4000       48
 147.4400       34
 147.4800       36
 147.5200       36
 147.5600       38
 147.6000       38
 147.6400       41
 147.6800       36
 147.7200       35
 147.7600       58
 147.8000       43
 147.8400       50
 147.8800       52
 147.9200       31
 147.9600       48
 148.0000       48
 148.0400       48
 148.0800       31
 148.1200       34
 148.1600       43
 148.2000       29
 148.2400       45
 148.2800       46
 148.3200       45
 148.3600       43
 148.4000       44
 148.4400       51
 148.4800       49
 148.5200       50
 148.5600       49
 148.6000       42
 148.6400       54
 148.6800       53
 148.7200       39
 148.7600       34
 148.8000       49
 148.8400       38
 148.8800       41
 148.9200       41
 148.9600       44
 149.0000       47
 149.0400       50
 149.0800       45
 149.1200       42
 149.1600       47
 149.2000       58
 149.2400       48
 149.2800       52
 149.3200       53
 149.3600       52
 149.4000       51
 149.4400       51
 149.4800       61
 149.5200       41
 149.5600       46
 149.6000       48
 149.6400       58
 149.6800       53
 149.7200       41
 149.7600       47
 149.8000       52
 149.8400       58
 149.8800       65
 149.9200       50
 149.9600       63
 150.0000       60
 150.0400       57
 150.0800       45
 150.1200       51
 150.1600       66
 150.2000       54
 150.2400       48
 150.2800       62
 150.3200       55
 150.3600       60
 150.4000       62
 150.4400       58
 150.4800       73
 150.5200       49
 150.5600       60
 150.6000       61
 150.6400       67
 150.6800       58
 150.7200       62
 150.7600       76
 150.8000       51
 150.8400       62
 150.8800       56
 150.9200       72
 150.9600       87
 151.0000       75
 151.0400       51
 151.0800       66
 151.1200       76
 151.1600       73
 151.2000       84
 151.2400       73
 151.2800       77
 151.3200       77
 151.3600       92
 151.4000       77
 151.4400       76
 151.4800       85
 151.5200       93
 151.5600      100
 151.6000       84
 151.6400       98
 151.6800      103
 151.7200       89
 151.7600       95
 151.8000      119
 151.8400       94
 151.8800       96
 151.9200      100
 151.9600      104
 152.0000      109
 152.0400      102
 152.0800      104
 152.1200      124
 152.1600       94
 152.2000      118
 152.2400       98
 152.2800      133
 152.3200      122
 152.3600      118
 152.4000      139
 152.4400      110
 152.4800      135
 152.5200      150
 152.5600      132
 152.6000      143
 152.6400      152
 152.6800      160
 152.7200      150
 152.7600      185
 152.8000      176
 152.8400      148
 152.8800      202
 152.9200      186
 152.9600      196
 153.0000      173
 153.0400      227
 153.0800      201
 153.1200      187
 153.1600      192
 153.2000      194
 153.2400      238
 153.2800      259
 153.3200      246
 153.3600      265
 153.4000      222
 153.4400      268
 153.4800      265
 153.5200      280
 153.5600      248
 153.6000      311
 153.6400      326
 153.6800      296
 153.7200      306
 153.7600      336
 153.8000      330
 153.8400      373
 153.8800      319
 153.9200      345
 153.9600      358
 154.0000      375
 154.0400      365
 154.0800      396
 154.1200      396
 154.1600      396
 154.2000      414
 154.2400      429
 154.2800      472
 154.3200      410
 154.3600      381
 154.4000      448
 154.4400      419
 154.4800      445
 154.5200      446
 154.5600      436
 154.6000      451
 154.6400      456
 154.6800      481
 154.7200      500
 154.7600      457
 154.8000      416
 154.8400      462
 154.8800      474
 154.9200      445
 154.9600      464
 155.0000      452