File: XRD_Tool/XRD_Tool/bin/Debug/SDD_sample_name_01234_Psi-15_20180602-173423.txt
 150.0000      125
 150.0200      115
 150.0400      108
 150.0600      125
 150.0800      111
 150.1000      124
 150.1200      134
 150.1400      105
 150.1600      139
 150.1800      123
 150.2000      116
 150.2200      134
 150.2400      119
 150.2600      128
 150.2800      125
 150.3000      129
 150.3200      132
 150.3400      113
 150.3600      129
 150.3800      160
 150.4000      128
 150.4200      153
 150.4400      119
 150.4600      140
 150.4800      139
 150.5000      146
 150.5200      131
 150.5400      151
 150.5600      137
 150.5800      152
 150.6000      157
 150.6200      131
 150.6400      140
 150.6600      135
 150.6800      139
 150.7000      136
 150.7200      140
 150.7400      147
 150.7600      149
 150.7800      152
 150.8000      141
 150.8200      148
 150.8400      130
 150.8600      152
 150.8800      137
 150.9000      165
 150.9200      155
 150.9400      164
 150.9600      167
 150.9800      161
 151.0000      177
 151.0200      149
 151.0400      160
 151.0600      173
 151.0800      171
 151.1000      180
 151.1200      166
 151.1400      177
 151.1600      179
 151.1800      184
 151.2000      177
 151.2200      156
 151.2400      163
 151.2600      182
 151.2800      179
 151.3000      189
 151.3200      183
 151.3400      196
 151.3600      195
 151.3800      197
 151.4000      160
 151.4200      176
 151.4400      198
 151.4600      192
 151.4800      214
 151.5000      188
 151.5200      196
 151.5400      194
 151.5600      177
 151.5800      188
 151.6000      209
 151.6200      198
 151.6400      219
 151.6600      181
 151.6800      196
 151.7000      211
 151.7200      244
 151.7400      232
 151.7600      209
 151.7800      199
 151.8000      222
 151.8200      203
 151.8400      238
 151.8600      221
 151.8800      226
 151.9000      216
 151.9200      216
 151.9400      231
 151.9600      208
 151.9800      228
 152.0000      250
 152.0200      246
 152.0400      249
 152.0600      247
 152.0800      244
 152.1000      242
 152.1200      216
 152.1400      230
 152.1600      256
 152.1800      270
 152.2000      243
 152.2200      242
 152.2400      260
 152.2600      292
 152.2800      278
 152.3000      250
 152.3200      259
 152.3400      248
 152.3600      257
 152.3800      253
 152.4000      263
 152.4200      267
 152.4400      270
 152.4600      282
 152.4800      239
 152.5000      253
 152.5200      276
 152.5400      289
 152.5600      291
 152.5800      299
 152.6000      270
 152.6200      296
 152.6400      282
 152.6600      291
 152.6800      298
 152.7000      288
 152.7200      303
 152.7400      299
 152.7600      319
 152.7800      325
 152.8000      321
 152.8200      322
 152.8400      325
 152.8600      313
 152.8800      309
 152.9000      311
 152.9200      327
 152.9400      316
 152.9600      337
 152.9800      336
 153.0000      313
 153.0200      348
 153.0400      327
 153.0600      333
 153.0800      368
 153.1000      360
 153.1200      321
 153.1400      360
 153.1600      344
 153.1800      330
 153.2000      349
 153.2200      344
 153.2400      347
 153.2600      355
 153.2800      394
 153.3000      322
 153.3200      331
 153.3400      345
 153.3600      343
 153.3800      324
 153.4000      368
 153.4200      402
 153.4400      382
 153.4600      378
 153.4800      384
 153.5000      387
 153.5200      416
 153.5400      391
 153.5600      411
 153.5800      382
 153.6000      382
 153.6200      365
 153.6400      412
 153.6600      376
 153.6800      411
 153.7000      412
 153.7200      378
 153.7400      365
 153.7600      401
 153.7800      435
 153.8000      417
 153.8200      406
 153.8400      436
 153.8600      418
 153.8800      382
 153.9000      434
 153.9200      419
 153.9400      423
 153.9600      437
 153.9800      385
 154.0000      404
 154.0200      420
 154.0400      470
 154.0600      446
 154.0800      419
 154.1000      400
 154.1200      439
 154.1400      447
 154.1600      439
 154.1800      438
 154.2000      451
 154.2200      419
 154.2400      424
 154.2600      426
 154.2800      435
 154.3000      456
 154.3200      439
 154.3400      471
 154.3600      429
 154.3800      460
 154.4000      420
 154.4200      454
 154.4400      492
 154.4600      468
 154.4800      464
 154.5000      438
 154.5200      481
 154.5400      475
 154.5600      463
 154.5800      499
 154.6000      460
 154.6200      464
 154.6400      433
 154.6600      479
 154.6800      436
 154.7000      477
 154.7200      489
 154.7400      488
 154.7600      456
 154.7800      454
 154.8000      397
 154.8200      494
 154.8400      431
 154.8600      495
 154.8800      488
 154.9000      450
 154.9200      459
 154.9400      491
 154.9600      458
 154.9800      467
 155.0000      432