File: XRD_Tool/XRD_Tool/bin/Debug/SDD_sample_name_01234_Psi-15_20180602-195354.txt
 150.0000      142
 150.0400      105
 150.0800      118
 150.1200      124
 150.1600      121
 150.2000      104
 150.2400      121
 150.2800      118
 150.3200      129
 150.3600      136
 150.4000      144
 150.4400      141
 150.4800      126
 150.5200      111
 150.5600      138
 150.6000      148
 150.6400      161
 150.6800      143
 150.7200      145
 150.7600      130
 150.8000      161
 150.8400      140
 150.8800      158
 150.9200      160
 150.9600      165
 151.0000      169
 151.0400      163
 151.0800      185
 151.1200      177
 151.1600      151
 151.2000      170
 151.2400      179
 151.2800      188
 151.3200      154
 151.3600      165
 151.4000      179
 151.4400      177
 151.4800      182
 151.5200      192
 151.5600      205
 151.6000      205
 151.6400      201
 151.6800      202
 151.7200      227
 151.7600      200
 151.8000      235
 151.8400      218
 151.8800      231
 151.9200      233
 151.9600      233
 152.0000      250
 152.0400      247
 152.0800      241
 152.1200      235
 152.1600      241
 152.2000      248
 152.2400      260
 152.2800      235
 152.3200      242
 152.3600      283
 152.4000      250
 152.4400      276
 152.4800      295
 152.5200      281
 152.5600      289
 152.6000      312
 152.6400      271
 152.6800      276
 152.7200      324
 152.7600      310
 152.8000      294
 152.8400      308
 152.8800      342
 152.9200      323
 152.9600      284
 153.0000      333
 153.0400      324
 153.0800      327
 153.1200      342
 153.1600      364
 153.2000      344
 153.2400      352
 153.2800      369
 153.3200      313
 153.3600      387
 153.4000      366
 153.4400      372
 153.4800      363
 153.5200      362
 153.5600      374
 153.6000      382
 153.6400      451
 153.6800      386
 153.7200      415
 153.7600      426
 153.8000      444
 153.8400      408
 153.8800      435
 153.9200      391
 153.9600      424
 154.0000      419
 154.0400      440
 154.0800      416
 154.1200      405
 154.1600      408
 154.2000      403
 154.2400      457
 154.2800      411
 154.3200      433
 154.3600      475
 154.4000      463
 154.4400      437
 154.4800      442
 154.5200      455
 154.5600      469
 154.6000      436
 154.6400      473
 154.6800      454
 154.7200      438
 154.7600      433
 154.8000      430
 154.8400      482
 154.8800      482
 154.9200      490
 154.9600      464
 155.0000      479
 155.0400      496
 155.0800      483
 155.1200      462
 155.1600      439
 155.2000      419
 155.2400      470
 155.2800      460
 155.3200      444
 155.3600      414
 155.4000      449
 155.4400      454
 155.4800      475
 155.5200      482
 155.5600      442
 155.6000      452
 155.6400      469
 155.6800      466
 155.7200      446
 155.7600      460
 155.8000      461
 155.8400      401
 155.8800      422
 155.9200      441
 155.9600      427
 156.0000      438
 156.0400      413
 156.0800      408
 156.1200      417
 156.1600      421
 156.2000      430
 156.2400      400
 156.2800      419
 156.3200      398
 156.3600      411
 156.4000      376
 156.4400      375
 156.4800      376
 156.5200      351
 156.5600      381
 156.6000      418
 156.6400      350
 156.6800      374
 156.7200      369
 156.7600      355
 156.8000      343
 156.8400      347
 156.8800      326
 156.9200      400
 156.9600      354
 157.0000      348
 157.0400      324
 157.0800      342
 157.1200      344
 157.1600      348
 157.2000      358
 157.2400      318
 157.2800      354
 157.3200      316
 157.3600      276
 157.4000      323
 157.4400      292
 157.4800      335
 157.5200      285
 157.5600      304
 157.6000      312
 157.6400      299
 157.6800      276
 157.7200      257
 157.7600      271
 157.8000      282
 157.8400      322
 157.8800      283
 157.9200      255
 157.9600      269
 158.0000      262