File: XRD_Tool/XRD_Tool/bin/Debug/SDD_sample_name_01234_Psi-15_20180602-103223.txt
 145.0000       38
 145.0400       29
 145.0800       38
 145.1200       28
 145.1600       44
 145.2000       36
 145.2400       52
 145.2800       34
 145.3200       29
 145.3600       43
 145.4000       36
 145.4400       35
 145.4800       38
 145.5200       38
 145.5600       24
 145.6000       27
 145.6400       21
 145.6800       35
 145.7200       40
 145.7600       33
 145.8000       31
 145.8400       35
 145.8800       27
 145.9200       29
 145.9600       36
 146.0000       36
 146.0400       42
 146.0800       46
 146.1200       27
 146.1600       33
 146.2000       39
 146.2400       42
 146.2800       33
 146.3200       35
 146.3600       40
 146.4000       42
 146.4400       35
 146.4800       39
 146.5200       45
 146.5600       47
 146.6000       40
 146.6400       24
 146.6800       40
 146.7200       33
 146.7600       41
 146.8000       39
 146.8400       44
 146.8800       30
 146.9200       33
 146.9600       37
 147.0000       31
 147.0400       35
 147.0800       29
 147.1200       36
 147.1600       43
 147.2000       31
 147.2400       42
 147.2800       40
 147.3200       36
 147.3600       34
 147.4000       37
 147.4400       22
 147.4800       53
 147.5200       31
 147.5600       29
 147.6000       45
 147.6400       43
 147.6800       34
 147.7200       37
 147.7600       38
 147.8000       49
 147.8400       47
 147.8800       43
 147.9200       31
 147.9600       48
 148.0000       34
 148.0400       29
 148.0800       39
 148.1200       32
 148.1600       45
 148.2000       39
 148.2400       24
 148.2800       36
 148.3200       45
 148.3600       37
 148.4000       29
 148.4400       37
 148.4800       42
 148.5200       38
 148.5600       45
 148.6000       46
 148.6400       41
 148.6800       41
 148.7200       38
 148.7600       34
 148.8000       42
 148.8400       41
 148.8800       35
 148.9200       45
 148.9600       44
 149.0000       40
 149.0400       36
 149.0800       46
 149.1200       44
 149.1600       43
 149.2000       44
 149.2400       44
 149.2800       54
 149.3200       38
 149.3600       47
 149.4000       46
 149.4400       58
 149.4800       34
 149.5200       59
 149.5600       37
 149.6000       52
 149.6400       49
 149.6800       41
 149.7200       40
 149.7600       45
 149.8000       46
 149.8400       52
 149.8800       49
 149.9200       47
 149.9600       44
 150.0000       44
 150.0400       50
 150.0800       49
 150.1200       51
 150.1600       54
 150.2000       45
 150.2400       54
 150.2800       53
 150.3200       48
 150.3600       52
 150.4000       68
 150.4400       59
 150.4800       58
 150.5200       60
 150.5600       56
 150.6000       62
 150.6400       51
 150.6800       55
 150.7200       53
 150.7600       50
 150.8000       56
 150.8400       63
 150.8800       57
 150.9200       63
 150.9600       57
 151.0000       67
 151.0400       71
 151.0800       58
 151.1200       61
 151.1600       62
 151.2000       98
 151.2400       74
 151.2800       86
 151.3200       89
 151.3600       73
 151.4000       71
 151.4400       82
 151.4800       79
 151.5200       79
 151.5600       69
 151.6000       93
 151.6400       87
 151.6800       83
 151.7200       80
 151.7600       86
 151.8000       90
 151.8400       82
 151.8800       84
 151.9200       82
 151.9600       96
 152.0000       91
 152.0400       92
 152.0800       95
 152.1200       94
 152.1600      114
 152.2000      114
 152.2400      107
 152.2800      121
 152.3200      103
 152.3600      118
 152.4000      132
 152.4400      137
 152.4800      133
 152.5200      133
 152.5600      123
 152.6000      132
 152.6400      143
 152.6800      131
 152.7200      151
 152.7600      130
 152.8000      143
 152.8400      155
 152.8800      160
 152.9200      169
 152.9600      172
 153.0000      217
 153.0400      163
 153.0800      182
 153.1200      195
 153.1600      196
 153.2000      179
 153.2400      215
 153.2800      205
 153.3200      235
 153.3600      224
 153.4000      233
 153.4400      246
 153.4800      254
 153.5200      296
 153.5600      281
 153.6000      261
 153.6400      275
 153.6800      251
 153.7200      278
 153.7600      279
 153.8000      306
 153.8400      317
 153.8800      333
 153.9200      346
 153.9600      328
 154.0000      336
 154.0400      358
 154.0800      348
 154.1200      404
 154.1600      351
 154.2000      375
 154.2400      378
 154.2800      420
 154.3200      370
 154.3600      396
 154.4000      459
 154.4400      469
 154.4800      446
 154.5200      428
 154.5600      450
 154.6000      423
 154.6400      415
 154.6800      471
 154.7200      435
 154.7600      411
 154.8000      453
 154.8400      445
 154.8800      456
 154.9200      431
 154.9600      459
 155.0000      435