File: XRD_Tool/XRD_Tool/bin/Debug/SDD_sample_name_001_Psi-45_20180528-025309.txt
 150.0000       56
 150.0400       77
 150.0800       52
 150.1200       66
 150.1600       69
 150.2000       56
 150.2400       69
 150.2800       59
 150.3200       60
 150.3600       63
 150.4000       75
 150.4400       72
 150.4800       66
 150.5200       64
 150.5600       60
 150.6000       69
 150.6400       63
 150.6800       67
 150.7200       64
 150.7600       60
 150.8000       77
 150.8400       73
 150.8800       70
 150.9200       70
 150.9600       70
 151.0000       71
 151.0400       70
 151.0800       70
 151.1200       70
 151.1600       64
 151.2000       52
 151.2400       72
 151.2800       75
 151.3200       63
 151.3600       81
 151.4000       71
 151.4400       83
 151.4800       80
 151.5200       74
 151.5600       84
 151.6000       59
 151.6400       90
 151.6800       68
 151.7200       67
 151.7600       78
 151.8000       87
 151.8400      101
 151.8800       86
 151.9200       98
 151.9600       88
 152.0000       97
 152.0400       85
 152.0800       92
 152.1200       96
 152.1600       84
 152.2000       92
 152.2400       93
 152.2800       93
 152.3200      103
 152.3600       94
 152.4000      122
 152.4400      123
 152.4800      122
 152.5200      103
 152.5600      105
 152.6000      107
 152.6400      108
 152.6800      111
 152.7200      114
 152.7600      116
 152.8000      126
 152.8400      113
 152.8800      144
 152.9200      145
 152.9600      141
 153.0000      149
 153.0400      121
 153.0800      132
 153.1200      147
 153.1600      147
 153.2000      141
 153.2400      135
 153.2800      140
 153.3200      168
 153.3600      162
 153.4000      160
 153.4400      168
 153.4800      166
 153.5200      190
 153.5600      177
 153.6000      209
 153.6400      200
 153.6800      189
 153.7200      200
 153.7600      202
 153.8000      222
 153.8400      233
 153.8800      222
 153.9200      233
 153.9600      223
 154.0000      230
 154.0400      251
 154.0800      257
 154.1200      283
 154.1600      294
 154.2000      290
 154.2400      277
 154.2800      271
 154.3200      318
 154.3600      285
 154.4000      278
 154.4400      307
 154.4800      280
 154.5200      325
 154.5600      348
 154.6000      332
 154.6400      371
 154.6800      348
 154.7200      354
 154.7600      382
 154.8000      398
 154.8400      364
 154.8800      400
 154.9200      385
 154.9600      396
 155.0000      369
 155.0400      401
 155.0800      394
 155.1200      393
 155.1600      431
 155.2000      383
 155.2400      398
 155.2800      403
 155.3200      417
 155.3600      417
 155.4000      437
 155.4400      383
 155.4800      385
 155.5200      416
 155.5600      416
 155.6000      407
 155.6400      429
 155.6800      451
 155.7200      407
 155.7600      424
 155.8000      375
 155.8400      438
 155.8800      370
 155.9200      408
 155.9600      372
 156.0000      396
 156.0400      369
 156.0800      370
 156.1200      360
 156.1600      386
 156.2000      362
 156.2400      341
 156.2800      329
 156.3200      342
 156.3600      344
 156.4000      333
 156.4400      328
 156.4800      275
 156.5200      305
 156.5600      307
 156.6000      300
 156.6400      293
 156.6800      293
 156.7200      296
 156.7600      308
 156.8000      283
 156.8400      251
 156.8800      261
 156.9200      258
 156.9600      249
 157.0000      241
 157.0400      244
 157.0800      216
 157.1200      239
 157.1600      236
 157.2000      232
 157.2400      227
 157.2800      230
 157.3200      222
 157.3600      208
 157.4000      179
 157.4400      227
 157.4800      177
 157.5200      187
 157.5600      170
 157.6000      193
 157.6400      172
 157.6800      225
 157.7200      156
 157.7600      177
 157.8000      179
 157.8400      163
 157.8800      155
 157.9200      163
 157.9600      145
 158.0000      127
 158.0400      153
 158.0800      140
 158.1200      132
 158.1600      159
 158.2000      139
 158.2400      130
 158.2800      140
 158.3200      125
 158.3600      147
 158.4000      136
 158.4400      124
 158.4800      143
 158.5200      124
 158.5600      109
 158.6000      100
 158.6400      126
 158.6800      116
 158.7200      119
 158.7600      110
 158.8000       88
 158.8400       93
 158.8800      113
 158.9200      110
 158.9600      115
 159.0000      102
 159.0400       93
 159.0800      114
 159.1200      106
 159.1600       79
 159.2000      115
 159.2400      104
 159.2800      105
 159.3200       98
 159.3600       95
 159.4000       91
 159.4400       78
 159.4800      101
 159.5200       77
 159.5600       97
 159.6000       85
 159.6400       97
 159.6800       80
 159.7200       87
 159.7600       97
 159.8000       98
 159.8400       85
 159.8800       71
 159.9200       77
 159.9600       80
 160.0000       90