File: XRD_Tool/XRD_Tool/bin/Debug/SDD_sample_name_01234_Psi-0_20180602-101145.txt
 145.0000       35
 145.0400       27
 145.0800       30
 145.1200       40
 145.1600       44
 145.2000       40
 145.2400       38
 145.2800       43
 145.3200       30
 145.3600       35
 145.4000       42
 145.4400       47
 145.4800       28
 145.5200       53
 145.5600       31
 145.6000       33
 145.6400       25
 145.6800       36
 145.7200       38
 145.7600       54
 145.8000       50
 145.8400       34
 145.8800       40
 145.9200       46
 145.9600       43
 146.0000       55
 146.0400       40
 146.0800       40
 146.1200       41
 146.1600       34
 146.2000       37
 146.2400       41
 146.2800       41
 146.3200       40
 146.3600       38
 146.4000       55
 146.4400       42
 146.4800       50
 146.5200       31
 146.5600       42
 146.6000       48
 146.6400       42
 146.6800       40
 146.7200       51
 146.7600       43
 146.8000       47
 146.8400       35
 146.8800       38
 146.9200       42
 146.9600       39
 147.0000       35
 147.0400       43
 147.0800       34
 147.1200       40
 147.1600       36
 147.2000       43
 147.2400       27
 147.2800       39
 147.3200       45
 147.3600       52
 147.4000       42
 147.4400       43
 147.4800       61
 147.5200       46
 147.5600       36
 147.6000       47
 147.6400       49
 147.6800       54
 147.7200       36
 147.7600       44
 147.8000       50
 147.8400       38
 147.8800       42
 147.9200       36
 147.9600       34
 148.0000       54
 148.0400       51
 148.0800       47
 148.1200       43
 148.1600       38
 148.2000       48
 148.2400       40
 148.2800       51
 148.3200       26
 148.3600       53
 148.4000       50
 148.4400       49
 148.4800       44
 148.5200       25
 148.5600       54
 148.6000       42
 148.6400       40
 148.6800       37
 148.7200       49
 148.7600       39
 148.8000       48
 148.8400       40
 148.8800       47
 148.9200       42
 148.9600       54
 149.0000       37
 149.0400       35
 149.0800       42
 149.1200       40
 149.1600       47
 149.2000       50
 149.2400       44
 149.2800       49
 149.3200       45
 149.3600       56
 149.4000       46
 149.4400       53
 149.4800       49
 149.5200       52
 149.5600       50
 149.6000       48
 149.6400       57
 149.6800       36
 149.7200       44
 149.7600       59
 149.8000       40
 149.8400       54
 149.8800       45
 149.9200       45
 149.9600       46
 150.0000       64
 150.0400       62
 150.0800       52
 150.1200       64
 150.1600       49
 150.2000       37
 150.2400       52
 150.2800       52
 150.3200       61
 150.3600       68
 150.4000       65
 150.4400       53
 150.4800       66
 150.5200       59
 150.5600       50
 150.6000       64
 150.6400       61
 150.6800       74
 150.7200       80
 150.7600       73
 150.8000       71
 150.8400       79
 150.8800       57
 150.9200       84
 150.9600       83
 151.0000       65
 151.0400       73
 151.0800       74
 151.1200       66
 151.1600       62
 151.2000       92
 151.2400       68
 151.2800       83
 151.3200       82
 151.3600       75
 151.4000       86
 151.4400       80
 151.4800       85
 151.5200       94
 151.5600       81
 151.6000       89
 151.6400       88
 151.6800       93
 151.7200      103
 151.7600       82
 151.8000       96
 151.8400       89
 151.8800      101
 151.9200       94
 151.9600      110
 152.0000       98
 152.0400      111
 152.0800      118
 152.1200      105
 152.1600      106
 152.2000      129
 152.2400      109
 152.2800      140
 152.3200      120
 152.3600      129
 152.4000      122
 152.4400      119
 152.4800      124
 152.5200      131
 152.5600      160
 152.6000      146
 152.6400      141
 152.6800      164
 152.7200      140
 152.7600      163
 152.8000      158
 152.8400      185
 152.8800      177
 152.9200      191
 152.9600      182
 153.0000      205
 153.0400      227
 153.0800      188
 153.1200      207
 153.1600      227
 153.2000      210
 153.2400      249
 153.2800      228
 153.3200      271
 153.3600      295
 153.4000      276
 153.4400      276
 153.4800      291
 153.5200      309
 153.5600      330
 153.6000      321
 153.6400      341
 153.6800      323
 153.7200      361
 153.7600      326
 153.8000      395
 153.8400      345
 153.8800      379
 153.9200      373
 153.9600      377
 154.0000      404
 154.0400      432
 154.0800      399
 154.1200      436
 154.1600      430
 154.2000      440
 154.2400      446
 154.2800      403
 154.3200      448
 154.3600      457
 154.4000      486
 154.4400      427
 154.4800      472
 154.5200      467
 154.5600      456
 154.6000      498
 154.6400      470
 154.6800      472
 154.7200      477
 154.7600      470
 154.8000      489
 154.8400      473
 154.8800      446
 154.9200      477
 154.9600      470
 155.0000      437