File: XRD_Tool/XRD_Tool/bin/Debug/SDD_sample_name_01234_Psi-0_20180527-125149.txt
 147.5000       44
 147.5200       56
 147.5400       60
 147.5600       50
 147.5800       50
 147.6000       46
 147.6200       53
 147.6400       49
 147.6600       56
 147.6800       52
 147.7000       58
 147.7200       57
 147.7400       54
 147.7600       45
 147.7800       57
 147.8000       50
 147.8200       49
 147.8400       57
 147.8600       54
 147.8800       51
 147.9000       54
 147.9200       50
 147.9400       62
 147.9600       45
 147.9800       55
 148.0000       66
 148.0200       56
 148.0400       73
 148.0600       51
 148.0800       49
 148.1000       75
 148.1200       59
 148.1400       51
 148.1600       57
 148.1800       58
 148.2000       46
 148.2200       53
 148.2400       63
 148.2600       55
 148.2800       47
 148.3000       59
 148.3200       77
 148.3400       53
 148.3600       64
 148.3800       57
 148.4000       53
 148.4200       53
 148.4400       40
 148.4600       47
 148.4800       53
 148.5000       61
 148.5200       48
 148.5400       55
 148.5600       52
 148.5800       51
 148.6000       51
 148.6200       54
 148.6400       49
 148.6600       56
 148.6800       62
 148.7000       55
 148.7200       54
 148.7400       49
 148.7600       56
 148.7800       58
 148.8000       56
 148.8200       57
 148.8400       49
 148.8600       63
 148.8800       59
 148.9000       55
 148.9200       64
 148.9400       60
 148.9600       57
 148.9800       68
 149.0000       54
 149.0200       54
 149.0400       62
 149.0600       51
 149.0800       48
 149.1000       63
 149.1200       43
 149.1400       56
 149.1600       65
 149.1800       70
 149.2000       65
 149.2200       65
 149.2400       48
 149.2600       65
 149.2800       60
 149.3000       56
 149.3200       50
 149.3400       59
 149.3600       54
 149.3800       52
 149.4000       64
 149.4200       51
 149.4400       66
 149.4600       68
 149.4800       59
 149.5000       52
 149.5200       60
 149.5400       57
 149.5600       70
 149.5800       54
 149.6000       63
 149.6200       59
 149.6400       62
 149.6600       61
 149.6800       71
 149.7000       60
 149.7200       68
 149.7400       74
 149.7600       65
 149.7800       61
 149.8000       58
 149.8200       63
 149.8400       66
 149.8600       60
 149.8800       51
 149.9000       65
 149.9200       52
 149.9400       63
 149.9600       72
 149.9800       49
 150.0000       62
 150.0200       63
 150.0400       63
 150.0600       62
 150.0800       65
 150.1000       61
 150.1200       58
 150.1400       69
 150.1600       66
 150.1800       61
 150.2000       80
 150.2200       66
 150.2400       60
 150.2600       69
 150.2800       71
 150.3000       61
 150.3200       70
 150.3400       80
 150.3600       52
 150.3800       68
 150.4000       74
 150.4200       78
 150.4400       65
 150.4600       62
 150.4800       69
 150.5000       65
 150.5200       84
 150.5400       67
 150.5600       73
 150.5800       86
 150.6000       78
 150.6200       83
 150.6400       76
 150.6600       74
 150.6800       76
 150.7000       86
 150.7200       74
 150.7400       85
 150.7600       76
 150.7800       73
 150.8000       88
 150.8200       69
 150.8400       93
 150.8600       82
 150.8800       92
 150.9000       66
 150.9200       68
 150.9400       73
 150.9600       76
 150.9800       78
 151.0000       79
 151.0200       74
 151.0400       93
 151.0600       98
 151.0800       85
 151.1000       94
 151.1200       81
 151.1400       92
 151.1600       84
 151.1800       81
 151.2000       92
 151.2200       89
 151.2400       86
 151.2600       86
 151.2800       72
 151.3000       84
 151.3200       81
 151.3400       92
 151.3600      101
 151.3800      102
 151.4000       94
 151.4200       90
 151.4400       99
 151.4600      103
 151.4800       93
 151.5000       95
 151.5200      101
 151.5400       84
 151.5600       86
 151.5800      106
 151.6000       96
 151.6200      108
 151.6400       91
 151.6600       84
 151.6800       96
 151.7000       92
 151.7200       99
 151.7400      105
 151.7600      101
 151.7800      104
 151.8000      107
 151.8200       98
 151.8400      101
 151.8600      111
 151.8800      100
 151.9000      107
 151.9200      107
 151.9400      115
 151.9600       88
 151.9800      128
 152.0000      106
 152.0200      125
 152.0400      111
 152.0600      118
 152.0800      123
 152.1000      140
 152.1200      115
 152.1400      110
 152.1600      115
 152.1800      125
 152.2000      123
 152.2200      130
 152.2400      128
 152.2600      138
 152.2800      148
 152.3000      116
 152.3200      124
 152.3400      134
 152.3600      144
 152.3800      130
 152.4000      136
 152.4200      140
 152.4400      137
 152.4600      154
 152.4800      152
 152.5000      157