File: XRD_Tool/XRD_Tool/bin/Debug/SDD_sample_name_01234_Psi-0_20180527-115744.txt
 147.5000       52
 147.5200       56
 147.5400       44
 147.5600       38
 147.5800       69
 147.6000       60
 147.6200       45
 147.6400       44
 147.6600       40
 147.6800       50
 147.7000       64
 147.7200       53
 147.7400       50
 147.7600       59
 147.7800       52
 147.8000       62
 147.8200       55
 147.8400       41
 147.8600       45
 147.8800       48
 147.9000       44
 147.9200       45
 147.9400       51
 147.9600       54
 147.9800       46
 148.0000       56
 148.0200       51
 148.0400       60
 148.0600       50
 148.0800       52
 148.1000       47
 148.1200       50
 148.1400       48
 148.1600       54
 148.1800       61
 148.2000       45
 148.2200       56
 148.2400       43
 148.2600       51
 148.2800       62
 148.3000       58
 148.3200       44
 148.3400       48
 148.3600       72
 148.3800       52
 148.4000       59
 148.4200       58
 148.4400       53
 148.4600       55
 148.4800       67
 148.5000       71
 148.5200       48
 148.5400       51
 148.5600       44
 148.5800       54
 148.6000       47
 148.6200       70
 148.6400       56
 148.6600       58
 148.6800       52
 148.7000       63
 148.7200       64
 148.7400       43
 148.7600       54
 148.7800       52
 148.8000       68
 148.8200       36
 148.8400       58
 148.8600       54
 148.8800       58
 148.9000       49
 148.9200       60
 148.9400       55
 148.9600       53
 148.9800       51
 149.0000       44
 149.0200       52
 149.0400       55
 149.0600       64
 149.0800       60
 149.1000       67
 149.1200       61
 149.1400       48
 149.1600       46
 149.1800       65
 149.2000       66
 149.2200       51
 149.2400       80
 149.2600       59
 149.2800       62
 149.3000       52
 149.3200       57
 149.3400       48
 149.3600       41
 149.3800       55
 149.4000       65
 149.4200       62
 149.4400       77
 149.4600       59
 149.4800       60
 149.5000       49
 149.5200       51
 149.5400       60
 149.5600       54
 149.5800       52
 149.6000       59
 149.6200       58
 149.6400       62
 149.6600       61
 149.6800       62
 149.7000       58
 149.7200       63
 149.7400       70
 149.7600       60
 149.7800       68
 149.8000       61
 149.8200       65
 149.8400       69
 149.8600       74
 149.8800       60
 149.9000       73
 149.9200       62
 149.9400       53
 149.9600       60
 149.9800       62
 150.0000       63
 150.0200       69
 150.0400       75
 150.0600       60
 150.0800       64
 150.1000       72
 150.1200       73
 150.1400       57
 150.1600       64
 150.1800       57
 150.2000       73
 150.2200       71
 150.2400       60
 150.2600       64
 150.2800       59
 150.3000       70
 150.3200       58
 150.3400       69
 150.3600       69
 150.3800       68
 150.4000       76
 150.4200       67
 150.4400       66
 150.4600       66
 150.4800       59
 150.5000       53
 150.5200       80
 150.5400       57
 150.5600       65
 150.5800       79
 150.6000       76
 150.6200       78
 150.6400       82
 150.6600       60
 150.6800       69
 150.7000       88
 150.7200       68
 150.7400       80
 150.7600       62
 150.7800       78
 150.8000       71
 150.8200       72
 150.8400       84
 150.8600       69
 150.8800       82
 150.9000       78
 150.9200       87
 150.9400       85
 150.9600       79
 150.9800       66
 151.0000       82
 151.0200       83
 151.0400       86
 151.0600       79
 151.0800       90
 151.1000       87
 151.1200       87
 151.1400       85
 151.1600       85
 151.1800       67
 151.2000       88
 151.2200       81
 151.2400       84
 151.2600       98
 151.2800       80
 151.3000       86
 151.3200       92
 151.3400       79
 151.3600       97
 151.3800       93
 151.4000      100
 151.4200       85
 151.4400      105
 151.4600       79
 151.4800      102
 151.5000      102
 151.5200       97
 151.5400      110
 151.5600       88
 151.5800      102
 151.6000       99
 151.6200       99
 151.6400      100
 151.6600      102
 151.6800       95
 151.7000      104
 151.7200      118
 151.7400      101
 151.7600      121
 151.7800       94
 151.8000      105
 151.8200       97
 151.8400      107
 151.8600      111
 151.8800      100
 151.9000      120
 151.9200       91
 151.9400      109
 151.9600      112
 151.9800      113
 152.0000      138
 152.0200      120
 152.0400      121
 152.0600      108
 152.0800       96
 152.1000      121
 152.1200      131
 152.1400      135
 152.1600      141
 152.1800      115
 152.2000      145
 152.2200      139
 152.2400      143
 152.2600      134
 152.2800      134
 152.3000      114
 152.3200      138
 152.3400      139
 152.3600      110
 152.3800      115
 152.4000      158
 152.4200      154
 152.4400      157
 152.4600      129
 152.4800      142
 152.5000      174