File: XRD_Tool/XRD_Tool/bin/Debug/SDD_sample_name_01234_Psi-0_20180602-131358.txt
 145.0000       47
 145.0400       39
 145.0800       29
 145.1200       29
 145.1600       42
 145.2000       48
 145.2400       36
 145.2800       41
 145.3200       42
 145.3600       43
 145.4000       42
 145.4400       41
 145.4800       48
 145.5200       40
 145.5600       42
 145.6000       45
 145.6400       39
 145.6800       29
 145.7200       37
 145.7600       39
 145.8000       44
 145.8400       46
 145.8800       28
 145.9200       36
 145.9600       42
 146.0000       35
 146.0400       34
 146.0800       33
 146.1200       41
 146.1600       49
 146.2000       42
 146.2400       43
 146.2800       47
 146.3200       38
 146.3600       44
 146.4000       36
 146.4400       33
 146.4800       28
 146.5200       45
 146.5600       50
 146.6000       32
 146.6400       38
 146.6800       35
 146.7200       33
 146.7600       44
 146.8000       25
 146.8400       26
 146.8800       43
 146.9200       44
 146.9600       43
 147.0000       35
 147.0400       33
 147.0800       39
 147.1200       56
 147.1600       27
 147.2000       43
 147.2400       48
 147.2800       28
 147.3200       35
 147.3600       44
 147.4000       33
 147.4400       26
 147.4800       32
 147.5200       45
 147.5600       33
 147.6000       40
 147.6400       33
 147.6800       29
 147.7200       45
 147.7600       44
 147.8000       44
 147.8400       52
 147.8800       29
 147.9200       44
 147.9600       31
 148.0000       45
 148.0400       38
 148.0800       41
 148.1200       46
 148.1600       50
 148.2000       49
 148.2400       38
 148.2800       36
 148.3200       42
 148.3600       37
 148.4000       39
 148.4400       40
 148.4800       48
 148.5200       45
 148.5600       50
 148.6000       45
 148.6400       50
 148.6800       42
 148.7200       45
 148.7600       56
 148.8000       44
 148.8400       57
 148.8800       38
 148.9200       41
 148.9600       43
 149.0000       45
 149.0400       52
 149.0800       46
 149.1200       64
 149.1600       52
 149.2000       37
 149.2400       57
 149.2800       45
 149.3200       46
 149.3600       44
 149.4000       50
 149.4400       63
 149.4800       46
 149.5200       45
 149.5600       42
 149.6000       61
 149.6400       62
 149.6800       54
 149.7200       50
 149.7600       52
 149.8000       53
 149.8400       46
 149.8800       62
 149.9200       43
 149.9600       52
 150.0000       47
 150.0400       48
 150.0800       46
 150.1200       58
 150.1600       71
 150.2000       46
 150.2400       58
 150.2800       73
 150.3200       62
 150.3600       53
 150.4000       67
 150.4400       56
 150.4800       57
 150.5200       69
 150.5600       54
 150.6000       59
 150.6400       70
 150.6800       66
 150.7200       68
 150.7600       69
 150.8000       70
 150.8400       54
 150.8800       80
 150.9200       74
 150.9600       59
 151.0000       71
 151.0400       72
 151.0800       71
 151.1200       69
 151.1600       58
 151.2000       57
 151.2400       76
 151.2800       85
 151.3200       67
 151.3600       83
 151.4000       95
 151.4400       75
 151.4800       80
 151.5200       74
 151.5600       88
 151.6000       76
 151.6400      101
 151.6800      103
 151.7200       91
 151.7600       88
 151.8000      101
 151.8400       87
 151.8800      121
 151.9200      121
 151.9600      117
 152.0000      111
 152.0400      103
 152.0800      109
 152.1200      130
 152.1600      110
 152.2000      118
 152.2400      114
 152.2800      127
 152.3200      125
 152.3600      139
 152.4000      117
 152.4400      158
 152.4800      158
 152.5200      153
 152.5600      155
 152.6000      162
 152.6400      182
 152.6800      172
 152.7200      155
 152.7600      168
 152.8000      201
 152.8400      190
 152.8800      181
 152.9200      191
 152.9600      188
 153.0000      198
 153.0400      192
 153.0800      214
 153.1200      224
 153.1600      231
 153.2000      254
 153.2400      226
 153.2800      241
 153.3200      256
 153.3600      273
 153.4000      281
 153.4400      280
 153.4800      300
 153.5200      287
 153.5600      345
 153.6000      341
 153.6400      349
 153.6800      355
 153.7200      367
 153.7600      331
 153.8000      344
 153.8400      371
 153.8800      382
 153.9200      381
 153.9600      414
 154.0000      438
 154.0400      396
 154.0800      424
 154.1200      412
 154.1600      440
 154.2000      448
 154.2400      451
 154.2800      471
 154.3200      438
 154.3600      447
 154.4000      461
 154.4400      438
 154.4800      500
 154.5200      462
 154.5600      523
 154.6000      442
 154.6400      486
 154.6800      482
 154.7200      456
 154.7600      486
 154.8000      464
 154.8400      453
 154.8800      437
 154.9200      467
 154.9600      479
 155.0000      462