File: XRD_Tool/XRD_Tool/bin/Debug/SDD_sample_name_01234_Psi-15_20180527-115812.txt
 147.5000       47
 147.5200       48
 147.5400       48
 147.5600       59
 147.5800       52
 147.6000       47
 147.6200       52
 147.6400       49
 147.6600       48
 147.6800       43
 147.7000       59
 147.7200       55
 147.7400       55
 147.7600       52
 147.7800       55
 147.8000       35
 147.8200       63
 147.8400       48
 147.8600       59
 147.8800       53
 147.9000       46
 147.9200       51
 147.9400       56
 147.9600       44
 147.9800       46
 148.0000       57
 148.0200       52
 148.0400       38
 148.0600       58
 148.0800       58
 148.1000       51
 148.1200       58
 148.1400       61
 148.1600       57
 148.1800       55
 148.2000       53
 148.2200       59
 148.2400       49
 148.2600       56
 148.2800       51
 148.3000       55
 148.3200       64
 148.3400       58
 148.3600       61
 148.3800       55
 148.4000       59
 148.4200       59
 148.4400       64
 148.4600       70
 148.4800       48
 148.5000       51
 148.5200       52
 148.5400       68
 148.5600       54
 148.5800       48
 148.6000       56
 148.6200       71
 148.6400       57
 148.6600       58
 148.6800       56
 148.7000       63
 148.7200       53
 148.7400       66
 148.7600       59
 148.7800       70
 148.8000       50
 148.8200       56
 148.8400       58
 148.8600       45
 148.8800       54
 148.9000       54
 148.9200       61
 148.9400       75
 148.9600       46
 148.9800       65
 149.0000       52
 149.0200       45
 149.0400       63
 149.0600       46
 149.0800       47
 149.1000       64
 149.1200       61
 149.1400       71
 149.1600       64
 149.1800       57
 149.2000       76
 149.2200       50
 149.2400       60
 149.2600       63
 149.2800       57
 149.3000       61
 149.3200       53
 149.3400       70
 149.3600       52
 149.3800       71
 149.4000       60
 149.4200       65
 149.4400       63
 149.4600       59
 149.4800       52
 149.5000       73
 149.5200       59
 149.5400       63
 149.5600       58
 149.5800       66
 149.6000       62
 149.6200       62
 149.6400       71
 149.6600       73
 149.6800       48
 149.7000       62
 149.7200       51
 149.7400       68
 149.7600       62
 149.7800       72
 149.8000       53
 149.8200       56
 149.8400       66
 149.8600       48
 149.8800       58
 149.9000       74
 149.9200       64
 149.9400       54
 149.9600       50
 149.9800       55
 150.0000       57
 150.0200       54
 150.0400       68
 150.0600       66
 150.0800       51
 150.1000       56
 150.1200       51
 150.1400       55
 150.1600       72
 150.1800       62
 150.2000       70
 150.2200       76
 150.2400       57
 150.2600       63
 150.2800       47
 150.3000       51
 150.3200       68
 150.3400       57
 150.3600       84
 150.3800       63
 150.4000       74
 150.4200       70
 150.4400       74
 150.4600       69
 150.4800       76
 150.5000       72
 150.5200       69
 150.5400       54
 150.5600       70
 150.5800       68
 150.6000       68
 150.6200       84
 150.6400       81
 150.6600       71
 150.6800       50
 150.7000       69
 150.7200       83
 150.7400       76
 150.7600       72
 150.7800       82
 150.8000       63
 150.8200       81
 150.8400       71
 150.8600       81
 150.8800       92
 150.9000       76
 150.9200       69
 150.9400       77
 150.9600       71
 150.9800       87
 151.0000       86
 151.0200       71
 151.0400       81
 151.0600       77
 151.0800       76
 151.1000       77
 151.1200       81
 151.1400       82
 151.1600      100
 151.1800      105
 151.2000       76
 151.2200       81
 151.2400       91
 151.2600       84
 151.2800       89
 151.3000       86
 151.3200       63
 151.3400       80
 151.3600       81
 151.3800       99
 151.4000       93
 151.4200       76
 151.4400       93
 151.4600       76
 151.4800      103
 151.5000       92
 151.5200       89
 151.5400      104
 151.5600       89
 151.5800       82
 151.6000       91
 151.6200       91
 151.6400      106
 151.6600       88
 151.6800       69
 151.7000      105
 151.7200       98
 151.7400       99
 151.7600      105
 151.7800      104
 151.8000      101
 151.8200      117
 151.8400      104
 151.8600       90
 151.8800      103
 151.9000       91
 151.9200      121
 151.9400       91
 151.9600      102
 151.9800      109
 152.0000      106
 152.0200      113
 152.0400       91
 152.0600      117
 152.0800      129
 152.1000      107
 152.1200      114
 152.1400      113
 152.1600      112
 152.1800      144
 152.2000      128
 152.2200      118
 152.2400      127
 152.2600      107
 152.2800      104
 152.3000      125
 152.3200      150
 152.3400      130
 152.3600      161
 152.3800      134
 152.4000      158
 152.4200      155
 152.4400      134
 152.4600      133
 152.4800      136
 152.5000      148