File: XRD_Tool/XRD_Tool/bin/Debug/SDD_sample_name_01234_Psi-15_20180602-173038.txt
 150.0000      131
 150.0200      108
 150.0400      137
 150.0600      128
 150.0800      131
 150.1000      117
 150.1200      123
 150.1400      122
 150.1600      120
 150.1800      138
 150.2000      113
 150.2200      114
 150.2400      137
 150.2600      125
 150.2800      151
 150.3000      132
 150.3200      141
 150.3400      133
 150.3600      121
 150.3800      139
 150.4000      145
 150.4200      119
 150.4400      150
 150.4600      129
 150.4800      145
 150.5000      131
 150.5200      136
 150.5400      133
 150.5600      141
 150.5800      136
 150.6000      129
 150.6200      154
 150.6400      150
 150.6600      141
 150.6800      153
 150.7000      159
 150.7200      152
 150.7400      163
 150.7600      178
 150.7800      145
 150.8000      161
 150.8200      136
 150.8400      141
 150.8600      144
 150.8800      145
 150.9000      169
 150.9200      156
 150.9400      150
 150.9600      153
 150.9800      183
 151.0000      140
 151.0200      177
 151.0400      139
 151.0600      156
 151.0800      167
 151.1000      166
 151.1200      191
 151.1400      187
 151.1600      158
 151.1800      162
 151.2000      165
 151.2200      170
 151.2400      171
 151.2600      205
 151.2800      199
 151.3000      179
 151.3200      180
 151.3400      203
 151.3600      181
 151.3800      164
 151.4000      179
 151.4200      189
 151.4400      185
 151.4600      197
 151.4800      198
 151.5000      177
 151.5200      217
 151.5400      190
 151.5600      196
 151.5800      204
 151.6000      202
 151.6200      209
 151.6400      188
 151.6600      224
 151.6800      180
 151.7000      211
 151.7200      199
 151.7400      214
 151.7600      217
 151.7800      244
 151.8000      215
 151.8200      232
 151.8400      260
 151.8600      178
 151.8800      227
 151.9000      205
 151.9200      207
 151.9400      264
 151.9600      222
 151.9800      238
 152.0000      236
 152.0200      234
 152.0400      227
 152.0600      213
 152.0800      275
 152.1000      255
 152.1200      223
 152.1400      234
 152.1600      236
 152.1800      245
 152.2000      250
 152.2200      254
 152.2400      258
 152.2600      261
 152.2800      240
 152.3000      287
 152.3200      252
 152.3400      245
 152.3600      257
 152.3800      270
 152.4000      279
 152.4200      278
 152.4400      254
 152.4600      267
 152.4800      249
 152.5000      301
 152.5200      252
 152.5400      270
 152.5600      281
 152.5800      327
 152.6000      273
 152.6200      284
 152.6400      289
 152.6600      265
 152.6800      319
 152.7000      287
 152.7200      309
 152.7400      293
 152.7600      309
 152.7800      291
 152.8000      307
 152.8200      288
 152.8400      296
 152.8600      320
 152.8800      314
 152.9000      303
 152.9200      305
 152.9400      338
 152.9600      345
 152.9800      306
 153.0000      341
 153.0200      307
 153.0400      320
 153.0600      329
 153.0800      355
 153.1000      356
 153.1200      324
 153.1400      342
 153.1600      349
 153.1800      335
 153.2000      340
 153.2200      334
 153.2400      365
 153.2600      342
 153.2800      330
 153.3000      361
 153.3200      350
 153.3400      347
 153.3600      383
 153.3800      351
 153.4000      349
 153.4200      343
 153.4400      362
 153.4600      371
 153.4800      349
 153.5000      388
 153.5200      396
 153.5400      391
 153.5600      406
 153.5800      390
 153.6000      357
 153.6200      364
 153.6400      417
 153.6600      369
 153.6800      402
 153.7000      368
 153.7200      372
 153.7400      381
 153.7600      411
 153.7800      385
 153.8000      397
 153.8200      423
 153.8400      427
 153.8600      429
 153.8800      368
 153.9000      426
 153.9200      428
 153.9400      405
 153.9600      423
 153.9800      393
 154.0000      433
 154.0200      467
 154.0400      431
 154.0600      422
 154.0800      433
 154.1000      430
 154.1200      408
 154.1400      416
 154.1600      449
 154.1800      449
 154.2000      444
 154.2200      395
 154.2400      431
 154.2600      434
 154.2800      429
 154.3000      435
 154.3200      436
 154.3400      460
 154.3600      467
 154.3800      440
 154.4000      460
 154.4200      464
 154.4400      462
 154.4600      458
 154.4800      438
 154.5000      458
 154.5200      468
 154.5400      476
 154.5600      487
 154.5800      477
 154.6000      483
 154.6200      476
 154.6400      444
 154.6600      435
 154.6800      444
 154.7000      437
 154.7200      484
 154.7400      467
 154.7600      429
 154.7800      436
 154.8000      448
 154.8200      456
 154.8400      432
 154.8600      454
 154.8800      463
 154.9000      474
 154.9200      470
 154.9400      491
 154.9600      506
 154.9800      427
 155.0000      498