File: XRD_Tool/XRD_Tool/bin/Debug/SDD_sample_name_01234_Psi-30_20180527-125245.txt
 147.5000       57
 147.5200       46
 147.5400       47
 147.5600       54
 147.5800       44
 147.6000       50
 147.6200       50
 147.6400       49
 147.6600       57
 147.6800       49
 147.7000       70
 147.7200       42
 147.7400       59
 147.7600       55
 147.7800       55
 147.8000       46
 147.8200       50
 147.8400       64
 147.8600       50
 147.8800       50
 147.9000       52
 147.9200       62
 147.9400       60
 147.9600       50
 147.9800       45
 148.0000       53
 148.0200       50
 148.0400       48
 148.0600       53
 148.0800       45
 148.1000       49
 148.1200       56
 148.1400       53
 148.1600       50
 148.1800       51
 148.2000       50
 148.2200       62
 148.2400       61
 148.2600       49
 148.2800       58
 148.3000       49
 148.3200       50
 148.3400       50
 148.3600       55
 148.3800       67
 148.4000       61
 148.4200       58
 148.4400       52
 148.4600       50
 148.4800       60
 148.5000       48
 148.5200       58
 148.5400       57
 148.5600       66
 148.5800       40
 148.6000       45
 148.6200       53
 148.6400       59
 148.6600       52
 148.6800       44
 148.7000       45
 148.7200       69
 148.7400       64
 148.7600       44
 148.7800       60
 148.8000       48
 148.8200       59
 148.8400       65
 148.8600       35
 148.8800       70
 148.9000       59
 148.9200       69
 148.9400       54
 148.9600       64
 148.9800       46
 149.0000       59
 149.0200       59
 149.0400       69
 149.0600       51
 149.0800       50
 149.1000       40
 149.1200       66
 149.1400       70
 149.1600       69
 149.1800       55
 149.2000       63
 149.2200       55
 149.2400       45
 149.2600       48
 149.2800       71
 149.3000       64
 149.3200       54
 149.3400       61
 149.3600       56
 149.3800       47
 149.4000       50
 149.4200       46
 149.4400       56
 149.4600       45
 149.4800       53
 149.5000       55
 149.5200       59
 149.5400       56
 149.5600       50
 149.5800       57
 149.6000       51
 149.6200       56
 149.6400       50
 149.6600       58
 149.6800       54
 149.7000       52
 149.7200       58
 149.7400       65
 149.7600       64
 149.7800       62
 149.8000       59
 149.8200       58
 149.8400       63
 149.8600       51
 149.8800       61
 149.9000       68
 149.9200       55
 149.9400       58
 149.9600       57
 149.9800       56
 150.0000       58
 150.0200       58
 150.0400       57
 150.0600       55
 150.0800       59
 150.1000       61
 150.1200       80
 150.1400       56
 150.1600       54
 150.1800       72
 150.2000       64
 150.2200       65
 150.2400       71
 150.2600       57
 150.2800       53
 150.3000       62
 150.3200       67
 150.3400       73
 150.3600       61
 150.3800       58
 150.4000       62
 150.4200       61
 150.4400       58
 150.4600       73
 150.4800       61
 150.5000       64
 150.5200       72
 150.5400       73
 150.5600       70
 150.5800       57
 150.6000       66
 150.6200       73
 150.6400       84
 150.6600       64
 150.6800       62
 150.7000       56
 150.7200       80
 150.7400       76
 150.7600       71
 150.7800       64
 150.8000       67
 150.8200       75
 150.8400       59
 150.8600       78
 150.8800       61
 150.9000       66
 150.9200       78
 150.9400       96
 150.9600       92
 150.9800       68
 151.0000       67
 151.0200       95
 151.0400       62
 151.0600       76
 151.0800       76
 151.1000       88
 151.1200       79
 151.1400       74
 151.1600       80
 151.1800       68
 151.2000       55
 151.2200       58
 151.2400       70
 151.2600       83
 151.2800       83
 151.3000       78
 151.3200       93
 151.3400       76
 151.3600       83
 151.3800       81
 151.4000       79
 151.4200       82
 151.4400      107
 151.4600       73
 151.4800       71
 151.5000       87
 151.5200       86
 151.5400       84
 151.5600       86
 151.5800       84
 151.6000       90
 151.6200       93
 151.6400       80
 151.6600       94
 151.6800       70
 151.7000       86
 151.7200       77
 151.7400      107
 151.7600      114
 151.7800       83
 151.8000       73
 151.8200      106
 151.8400       77
 151.8600       82
 151.8800       81
 151.9000       85
 151.9200       87
 151.9400       76
 151.9600       91
 151.9800      105
 152.0000       90
 152.0200       99
 152.0400       97
 152.0600      101
 152.0800      104
 152.1000       92
 152.1200       97
 152.1400      100
 152.1600      107
 152.1800      110
 152.2000      108
 152.2200      119
 152.2400      126
 152.2600      135
 152.2800      105
 152.3000      126
 152.3200      112
 152.3400      127
 152.3600      108
 152.3800      112
 152.4000      115
 152.4200      146
 152.4400      122
 152.4600      126
 152.4800      125
 152.5000      117