File: XRD_Tool/XRD_Tool/bin/Debug/SDD_sample_name_01234_Psi-0_20180602-195316.txt
 150.0000      127
 150.0400      141
 150.0800      140
 150.1200      152
 150.1600      146
 150.2000      131
 150.2400      138
 150.2800      134
 150.3200      141
 150.3600      153
 150.4000      162
 150.4400      159
 150.4800      144
 150.5200      158
 150.5600      142
 150.6000      145
 150.6400      135
 150.6800      173
 150.7200      173
 150.7600      172
 150.8000      174
 150.8400      157
 150.8800      149
 150.9200      166
 150.9600      170
 151.0000      173
 151.0400      178
 151.0800      182
 151.1200      200
 151.1600      168
 151.2000      180
 151.2400      174
 151.2800      186
 151.3200      207
 151.3600      191
 151.4000      209
 151.4400      214
 151.4800      197
 151.5200      225
 151.5600      208
 151.6000      214
 151.6400      234
 151.6800      203
 151.7200      207
 151.7600      246
 151.8000      220
 151.8400      237
 151.8800      243
 151.9200      247
 151.9600      249
 152.0000      263
 152.0400      266
 152.0800      252
 152.1200      273
 152.1600      259
 152.2000      295
 152.2400      250
 152.2800      286
 152.3200      276
 152.3600      303
 152.4000      274
 152.4400      276
 152.4800      310
 152.5200      333
 152.5600      315
 152.6000      316
 152.6400      328
 152.6800      312
 152.7200      342
 152.7600      341
 152.8000      319
 152.8400      337
 152.8800      346
 152.9200      349
 152.9600      392
 153.0000      332
 153.0400      339
 153.0800      340
 153.1200      348
 153.1600      402
 153.2000      378
 153.2400      394
 153.2800      366
 153.3200      415
 153.3600      381
 153.4000      413
 153.4400      426
 153.4800      416
 153.5200      398
 153.5600      409
 153.6000      442
 153.6400      423
 153.6800      426
 153.7200      423
 153.7600      452
 153.8000      428
 153.8400      396
 153.8800      448
 153.9200      443
 153.9600      459
 154.0000      483
 154.0400      423
 154.0800      438
 154.1200      483
 154.1600      450
 154.2000      457
 154.2400      445
 154.2800      437
 154.3200      483
 154.3600      468
 154.4000      458
 154.4400      463
 154.4800      471
 154.5200      431
 154.5600      498
 154.6000      475
 154.6400      464
 154.6800      484
 154.7200      477
 154.7600      477
 154.8000      462
 154.8400      457
 154.8800      486
 154.9200      527
 154.9600      438
 155.0000      478
 155.0400      501
 155.0800      501
 155.1200      498
 155.1600      476
 155.2000      453
 155.2400      449
 155.2800      459
 155.3200      480
 155.3600      494
 155.4000      475
 155.4400      476
 155.4800      484
 155.5200      501
 155.5600      442
 155.6000      448
 155.6400      453
 155.6800      438
 155.7200      425
 155.7600      477
 155.8000      444
 155.8400      456
 155.8800      461
 155.9200      390
 155.9600      445
 156.0000      439
 156.0400      453
 156.0800      424
 156.1200      443
 156.1600      394
 156.2000      417
 156.2400      423
 156.2800      397
 156.3200      393
 156.3600      401
 156.4000      389
 156.4400      365
 156.4800      382
 156.5200      385
 156.5600      382
 156.6000      362
 156.6400      366
 156.6800      380
 156.7200      357
 156.7600      343
 156.8000      374
 156.8400      343
 156.8800      342
 156.9200      334
 156.9600      400
 157.0000      375
 157.0400      348
 157.0800      308
 157.1200      335
 157.1600      375
 157.2000      314
 157.2400      326
 157.2800      289
 157.3200      304
 157.3600      294
 157.4000      284
 157.4400      291
 157.4800      267
 157.5200      310
 157.5600      276
 157.6000      275
 157.6400      276
 157.6800      298
 157.7200      279
 157.7600      272
 157.8000      248
 157.8400      254
 157.8800      285
 157.9200      261
 157.9600      242
 158.0000      260