File: XRD_Tool/XRD_Tool/bin/Debug/SDD_sample_name_01234_Psi-30_20180602-173914.txt
 150.0000       89
 150.0200      113
 150.0400       92
 150.0600       98
 150.0800      100
 150.1000      116
 150.1200      107
 150.1400       91
 150.1600       94
 150.1800       97
 150.2000      110
 150.2200      101
 150.2400      124
 150.2600      127
 150.2800      102
 150.3000       94
 150.3200      112
 150.3400      106
 150.3600      101
 150.3800      128
 150.4000      114
 150.4200      109
 150.4400      114
 150.4600      104
 150.4800      136
 150.5000      126
 150.5200      110
 150.5400      102
 150.5600      124
 150.5800      120
 150.6000      115
 150.6200      108
 150.6400      125
 150.6600      119
 150.6800      133
 150.7000      126
 150.7200      128
 150.7400      126
 150.7600      127
 150.7800      134
 150.8000      129
 150.8200      134
 150.8400      119
 150.8600      124
 150.8800      118
 150.9000      143
 150.9200      125
 150.9400      125
 150.9600      154
 150.9800      138
 151.0000      138
 151.0200      139
 151.0400      153
 151.0600      139
 151.0800      144
 151.1000      133
 151.1200      150
 151.1400      119
 151.1600      142
 151.1800      143
 151.2000      130
 151.2200      148
 151.2400      131
 151.2600      134
 151.2800      138
 151.3000      132
 151.3200      159
 151.3400      130
 151.3600      134
 151.3800      143
 151.4000      161
 151.4200      143
 151.4400      154
 151.4600      171
 151.4800      154
 151.5000      159
 151.5200      162
 151.5400      175
 151.5600      172
 151.5800      152
 151.6000      168
 151.6200      168
 151.6400      157
 151.6600      161
 151.6800      161
 151.7000      163
 151.7200      152
 151.7400      182
 151.7600      179
 151.7800      196
 151.8000      188
 151.8200      178
 151.8400      168
 151.8600      167
 151.8800      193
 151.9000      172
 151.9200      167
 151.9400      187
 151.9600      196
 151.9800      186
 152.0000      188
 152.0200      192
 152.0400      201
 152.0600      204
 152.0800      194
 152.1000      177
 152.1200      176
 152.1400      171
 152.1600      205
 152.1800      196
 152.2000      235
 152.2200      222
 152.2400      218
 152.2600      198
 152.2800      227
 152.3000      221
 152.3200      194
 152.3400      194
 152.3600      235
 152.3800      214
 152.4000      245
 152.4200      214
 152.4400      208
 152.4600      223
 152.4800      226
 152.5000      227
 152.5200      239
 152.5400      182
 152.5600      246
 152.5800      228
 152.6000      243
 152.6200      266
 152.6400      237
 152.6600      191
 152.6800      242
 152.7000      229
 152.7200      247
 152.7400      247
 152.7600      243
 152.7800      271
 152.8000      249
 152.8200      258
 152.8400      261
 152.8600      244
 152.8800      217
 152.9000      250
 152.9200      254
 152.9400      246
 152.9600      245
 152.9800      253
 153.0000      278
 153.0200      265
 153.0400      295
 153.0600      305
 153.0800      252
 153.1000      271
 153.1200      253
 153.1400      281
 153.1600      280
 153.1800      293
 153.2000      299
 153.2200      304
 153.2400      291
 153.2600      290
 153.2800      269
 153.3000      296
 153.3200      289
 153.3400      296
 153.3600      290
 153.3800      345
 153.4000      306
 153.4200      314
 153.4400      278
 153.4600      320
 153.4800      328
 153.5000      318
 153.5200      327
 153.5400      365
 153.5600      324
 153.5800      291
 153.6000      315
 153.6200      307
 153.6400      338
 153.6600      305
 153.6800      309
 153.7000      331
 153.7200      346
 153.7400      341
 153.7600      346
 153.7800      318
 153.8000      335
 153.8200      353
 153.8400      327
 153.8600      332
 153.8800      371
 153.9000      317
 153.9200      339
 153.9400      360
 153.9600      360
 153.9800      375
 154.0000      318
 154.0200      387
 154.0400      365
 154.0600      360
 154.0800      355
 154.1000      363
 154.1200      394
 154.1400      377
 154.1600      403
 154.1800      380
 154.2000      365
 154.2200      368
 154.2400      350
 154.2600      375
 154.2800      382
 154.3000      350
 154.3200      364
 154.3400      391
 154.3600      378
 154.3800      377
 154.4000      373
 154.4200      383
 154.4400      364
 154.4600      389
 154.4800      391
 154.5000      413
 154.5200      352
 154.5400      411
 154.5600      386
 154.5800      408
 154.6000      428
 154.6200      375
 154.6400      378
 154.6600      403
 154.6800      415
 154.7000      382
 154.7200      392
 154.7400      423
 154.7600      426
 154.7800      426
 154.8000      400
 154.8200      428
 154.8400      394
 154.8600      421
 154.8800      411
 154.9000      381
 154.9200      415
 154.9400      413
 154.9600      432
 154.9800      398
 155.0000      415