File: XRD_Tool/XRD_Tool/bin/Debug/SDD_sample_name_01234_Psi-0_20180602-103331.txt
 145.0000       30
 145.0400       23
 145.0800       36
 145.1200       40
 145.1600       37
 145.2000       32
 145.2400       42
 145.2800       45
 145.3200       31
 145.3600       45
 145.4000       46
 145.4400       40
 145.4800       37
 145.5200       36
 145.5600       33
 145.6000       40
 145.6400       43
 145.6800       42
 145.7200       46
 145.7600       29
 145.8000       43
 145.8400       32
 145.8800       33
 145.9200       36
 145.9600       36
 146.0000       35
 146.0400       39
 146.0800       37
 146.1200       42
 146.1600       37
 146.2000       44
 146.2400       32
 146.2800       37
 146.3200       28
 146.3600       32
 146.4000       47
 146.4400       43
 146.4800       42
 146.5200       51
 146.5600       44
 146.6000       44
 146.6400       28
 146.6800       34
 146.7200       34
 146.7600       38
 146.8000       47
 146.8400       40
 146.8800       34
 146.9200       43
 146.9600       36
 147.0000       44
 147.0400       43
 147.0800       37
 147.1200       31
 147.1600       29
 147.2000       46
 147.2400       30
 147.2800       46
 147.3200       35
 147.3600       37
 147.4000       29
 147.4400       55
 147.4800       37
 147.5200       47
 147.5600       43
 147.6000       48
 147.6400       35
 147.6800       38
 147.7200       40
 147.7600       41
 147.8000       43
 147.8400       52
 147.8800       31
 147.9200       38
 147.9600       46
 148.0000       40
 148.0400       40
 148.0800       46
 148.1200       47
 148.1600       53
 148.2000       52
 148.2400       38
 148.2800       46
 148.3200       56
 148.3600       41
 148.4000       42
 148.4400       36
 148.4800       43
 148.5200       48
 148.5600       51
 148.6000       42
 148.6400       40
 148.6800       47
 148.7200       34
 148.7600       49
 148.8000       39
 148.8400       59
 148.8800       44
 148.9200       48
 148.9600       41
 149.0000       54
 149.0400       34
 149.0800       43
 149.1200       41
 149.1600       41
 149.2000       32
 149.2400       52
 149.2800       52
 149.3200       43
 149.3600       48
 149.4000       54
 149.4400       44
 149.4800       56
 149.5200       45
 149.5600       52
 149.6000       53
 149.6400       57
 149.6800       49
 149.7200       56
 149.7600       47
 149.8000       51
 149.8400       52
 149.8800       51
 149.9200       61
 149.9600       62
 150.0000       62
 150.0400       45
 150.0800       51
 150.1200       45
 150.1600       57
 150.2000       53
 150.2400       68
 150.2800       69
 150.3200       46
 150.3600       56
 150.4000       73
 150.4400       38
 150.4800       50
 150.5200       68
 150.5600       60
 150.6000       57
 150.6400       55
 150.6800       60
 150.7200       68
 150.7600       73
 150.8000       55
 150.8400       61
 150.8800       70
 150.9200       66
 150.9600       74
 151.0000       87
 151.0400       81
 151.0800       93
 151.1200       77
 151.1600       90
 151.2000       66
 151.2400       72
 151.2800       72
 151.3200       92
 151.3600       76
 151.4000       79
 151.4400       88
 151.4800       88
 151.5200       85
 151.5600       89
 151.6000       88
 151.6400       85
 151.6800       76
 151.7200       93
 151.7600       75
 151.8000       98
 151.8400       97
 151.8800      112
 151.9200      103
 151.9600      109
 152.0000      111
 152.0400       93
 152.0800      111
 152.1200      112
 152.1600      130
 152.2000      125
 152.2400      121
 152.2800      134
 152.3200      114
 152.3600      148
 152.4000      152
 152.4400      127
 152.4800      140
 152.5200      171
 152.5600      145
 152.6000      159
 152.6400      165
 152.6800      158
 152.7200      151
 152.7600      182
 152.8000      193
 152.8400      205
 152.8800      197
 152.9200      193
 152.9600      184
 153.0000      187
 153.0400      194
 153.0800      221
 153.1200      231
 153.1600      232
 153.2000      225
 153.2400      257
 153.2800      275
 153.3200      277
 153.3600      279
 153.4000      293
 153.4400      295
 153.4800      282
 153.5200      278
 153.5600      313
 153.6000      325
 153.6400      317
 153.6800      365
 153.7200      352
 153.7600      351
 153.8000      362
 153.8400      334
 153.8800      400
 153.9200      376
 153.9600      364
 154.0000      421
 154.0400      389
 154.0800      390
 154.1200      448
 154.1600      443
 154.2000      456
 154.2400      455
 154.2800      457
 154.3200      464
 154.3600      464
 154.4000      470
 154.4400      467
 154.4800      482
 154.5200      454
 154.5600      531
 154.6000      451
 154.6400      514
 154.6800      464
 154.7200      498
 154.7600      476
 154.8000      473
 154.8400      489
 154.8800      524
 154.9200      462
 154.9600      463
 155.0000      452