File: XRD_Tool/XRD_Tool/bin/Debug/SDD_sample_name_01234_Psi-0_20180602-151429.txt
 145.0000       39
 145.0400       32
 145.0800       37
 145.1200       37
 145.1600       36
 145.2000       32
 145.2400       38
 145.2800       30
 145.3200       43
 145.3600       46
 145.4000       29
 145.4400       44
 145.4800       40
 145.5200       45
 145.5600       40
 145.6000       40
 145.6400       44
 145.6800       26
 145.7200       50
 145.7600       47
 145.8000       36
 145.8400       33
 145.8800       48
 145.9200       26
 145.9600       40
 146.0000       38
 146.0400       49
 146.0800       41
 146.1200       45
 146.1600       32
 146.2000       34
 146.2400       34
 146.2800       46
 146.3200       38
 146.3600       39
 146.4000       31
 146.4400       42
 146.4800       35
 146.5200       41
 146.5600       38
 146.6000       40
 146.6400       33
 146.6800       42
 146.7200       58
 146.7600       32
 146.8000       44
 146.8400       35
 146.8800       47
 146.9200       27
 146.9600       34
 147.0000       47
 147.0400       38
 147.0800       41
 147.1200       42
 147.1600       48
 147.2000       29
 147.2400       43
 147.2800       40
 147.3200       40
 147.3600       39
 147.4000       41
 147.4400       38
 147.4800       40
 147.5200       42
 147.5600       39
 147.6000       46
 147.6400       43
 147.6800       30
 147.7200       47
 147.7600       41
 147.8000       43
 147.8400       41
 147.8800       40
 147.9200       37
 147.9600       43
 148.0000       35
 148.0400       41
 148.0800       50
 148.1200       36
 148.1600       43
 148.2000       47
 148.2400       52
 148.2800       37
 148.3200       52
 148.3600       49
 148.4000       43
 148.4400       47
 148.4800       36
 148.5200       43
 148.5600       56
 148.6000       43
 148.6400       49
 148.6800       37
 148.7200       49
 148.7600       39
 148.8000       36
 148.8400       48
 148.8800       52
 148.9200       45
 148.9600       47
 149.0000       45
 149.0400       47
 149.0800       44
 149.1200       51
 149.1600       42
 149.2000       43
 149.2400       63
 149.2800       63
 149.3200       47
 149.3600       41
 149.4000       46
 149.4400       56
 149.4800       58
 149.5200       54
 149.5600       53
 149.6000       36
 149.6400       54
 149.6800       52
 149.7200       58
 149.7600       49
 149.8000       44
 149.8400       52
 149.8800       50
 149.9200       53
 149.9600       59
 150.0000       48
 150.0400       47
 150.0800       55
 150.1200       52
 150.1600       55
 150.2000       52
 150.2400       47
 150.2800       56
 150.3200       66
 150.3600       60
 150.4000       73
 150.4400       60
 150.4800       60
 150.5200       59
 150.5600       73
 150.6000       59
 150.6400       58
 150.6800       72
 150.7200       49
 150.7600       70
 150.8000       71
 150.8400       77
 150.8800       76
 150.9200       65
 150.9600       69
 151.0000       65
 151.0400       57
 151.0800       73
 151.1200       66
 151.1600       75
 151.2000       70
 151.2400       80
 151.2800       71
 151.3200       88
 151.3600       74
 151.4000       65
 151.4400       65
 151.4800       79
 151.5200       79
 151.5600      100
 151.6000       96
 151.6400       95
 151.6800       97
 151.7200      112
 151.7600       98
 151.8000       91
 151.8400       88
 151.8800      110
 151.9200      104
 151.9600      117
 152.0000       92
 152.0400      122
 152.0800      118
 152.1200       94
 152.1600      107
 152.2000      136
 152.2400      121
 152.2800      126
 152.3200      142
 152.3600      139
 152.4000      139
 152.4400      160
 152.4800      139
 152.5200      162
 152.5600      169
 152.6000      163
 152.6400      160
 152.6800      162
 152.7200      167
 152.7600      179
 152.8000      189
 152.8400      163
 152.8800      207
 152.9200      196
 152.9600      211
 153.0000      215
 153.0400      208
 153.0800      221
 153.1200      230
 153.1600      238
 153.2000      258
 153.2400      251
 153.2800      257
 153.3200      276
 153.3600      255
 153.4000      266
 153.4400      301
 153.4800      306
 153.5200      309
 153.5600      293
 153.6000      315
 153.6400      316
 153.6800      306
 153.7200      338
 153.7600      358
 153.8000      370
 153.8400      365
 153.8800      360
 153.9200      364
 153.9600      408
 154.0000      422
 154.0400      434
 154.0800      433
 154.1200      429
 154.1600      445
 154.2000      434
 154.2400      460
 154.2800      477
 154.3200      457
 154.3600      457
 154.4000      440
 154.4400      461
 154.4800      465
 154.5200      481
 154.5600      500
 154.6000      452
 154.6400      506
 154.6800      485
 154.7200      522
 154.7600      481
 154.8000      486
 154.8400      462
 154.8800      463
 154.9200      495
 154.9600      435
 155.0000      451