File: XRD_Tool/XRD_Tool/bin/Debug/SDD_sample_name_01234_Psi-0_20180602-152417.txt
 145.0000       43
 145.0400       37
 145.0800       34
 145.1200       43
 145.1600       41
 145.2000       37
 145.2400       39
 145.2800       41
 145.3200       45
 145.3600       32
 145.4000       36
 145.4400       40
 145.4800       36
 145.5200       43
 145.5600       36
 145.6000       37
 145.6400       37
 145.6800       29
 145.7200       42
 145.7600       43
 145.8000       39
 145.8400       34
 145.8800       37
 145.9200       37
 145.9600       47
 146.0000       32
 146.0400       37
 146.0800       33
 146.1200       29
 146.1600       40
 146.2000       37
 146.2400       38
 146.2800       51
 146.3200       37
 146.3600       44
 146.4000       41
 146.4400       36
 146.4800       29
 146.5200       35
 146.5600       29
 146.6000       37
 146.6400       38
 146.6800       40
 146.7200       34
 146.7600       53
 146.8000       49
 146.8400       28
 146.8800       37
 146.9200       37
 146.9600       47
 147.0000       46
 147.0400       49
 147.0800       54
 147.1200       53
 147.1600       54
 147.2000       43
 147.2400       37
 147.2800       50
 147.3200       39
 147.3600       42
 147.4000       39
 147.4400       34
 147.4800       40
 147.5200       44
 147.5600       34
 147.6000       47
 147.6400       54
 147.6800       38
 147.7200       42
 147.7600       50
 147.8000       44
 147.8400       46
 147.8800       27
 147.9200       41
 147.9600       37
 148.0000       33
 148.0400       39
 148.0800       44
 148.1200       41
 148.1600       49
 148.2000       32
 148.2400       50
 148.2800       38
 148.3200       45
 148.3600       41
 148.4000       41
 148.4400       56
 148.4800       39
 148.5200       46
 148.5600       33
 148.6000       54
 148.6400       38
 148.6800       49
 148.7200       55
 148.7600       48
 148.8000       53
 148.8400       50
 148.8800       48
 148.9200       44
 148.9600       42
 149.0000       57
 149.0400       48
 149.0800       53
 149.1200       41
 149.1600       55
 149.2000       36
 149.2400       49
 149.2800       38
 149.3200       57
 149.3600       52
 149.4000       49
 149.4400       53
 149.4800       51
 149.5200       35
 149.5600       54
 149.6000       53
 149.6400       41
 149.6800       51
 149.7200       40
 149.7600       57
 149.8000       44
 149.8400       56
 149.8800       56
 149.9200       47
 149.9600       60
 150.0000       58
 150.0400       67
 150.0800       49
 150.1200       61
 150.1600       51
 150.2000       72
 150.2400       57
 150.2800       60
 150.3200       55
 150.3600       51
 150.4000       60
 150.4400       64
 150.4800       51
 150.5200       65
 150.5600       62
 150.6000       62
 150.6400       59
 150.6800       57
 150.7200       72
 150.7600       71
 150.8000       59
 150.8400       63
 150.8800       74
 150.9200       79
 150.9600       67
 151.0000       66
 151.0400       64
 151.0800       77
 151.1200       73
 151.1600       75
 151.2000      102
 151.2400       74
 151.2800       82
 151.3200       71
 151.3600       90
 151.4000       98
 151.4400       80
 151.4800       88
 151.5200       91
 151.5600       92
 151.6000       87
 151.6400       87
 151.6800       93
 151.7200       94
 151.7600      116
 151.8000      104
 151.8400      113
 151.8800       94
 151.9200      107
 151.9600       94
 152.0000       97
 152.0400      116
 152.0800      102
 152.1200      114
 152.1600      115
 152.2000      132
 152.2400      134
 152.2800      121
 152.3200      154
 152.3600      133
 152.4000      145
 152.4400      146
 152.4800      157
 152.5200      140
 152.5600      137
 152.6000      158
 152.6400      149
 152.6800      164
 152.7200      184
 152.7600      174
 152.8000      195
 152.8400      176
 152.8800      178
 152.9200      191
 152.9600      224
 153.0000      233
 153.0400      185
 153.0800      207
 153.1200      242
 153.1600      220
 153.2000      247
 153.2400      247
 153.2800      245
 153.3200      283
 153.3600      255
 153.4000      311
 153.4400      296
 153.4800      288
 153.5200      314
 153.5600      326
 153.6000      309
 153.6400      338
 153.6800      331
 153.7200      370
 153.7600      347
 153.8000      346
 153.8400      387
 153.8800      414
 153.9200      356
 153.9600      410
 154.0000      356
 154.0400      418
 154.0800      392
 154.1200      455
 154.1600      458
 154.2000      418
 154.2400      451
 154.2800      477
 154.3200      451
 154.3600      451
 154.4000      501
 154.4400      473
 154.4800      477
 154.5200      497
 154.5600      479
 154.6000      463
 154.6400      485
 154.6800      474
 154.7200      490
 154.7600      506
 154.8000      509
 154.8400      463
 154.8800      529
 154.9200      480
 154.9600      482
 155.0000      472