File: XRD_Tool/XRD_Tool/bin/Debug/SDD_sample_name_01234_Psi-15_20180602-175721.txt
 150.0000      112
 150.0200      110
 150.0400      103
 150.0600      130
 150.0800      108
 150.1000       99
 150.1200      127
 150.1400      123
 150.1600      122
 150.1800      115
 150.2000      122
 150.2200      132
 150.2400      123
 150.2600      139
 150.2800      138
 150.3000      141
 150.3200      124
 150.3400      121
 150.3600      150
 150.3800      146
 150.4000      138
 150.4200      129
 150.4400      146
 150.4600      164
 150.4800      124
 150.5000      142
 150.5200      134
 150.5400      147
 150.5600      144
 150.5800      122
 150.6000      136
 150.6200      129
 150.6400      138
 150.6600      151
 150.6800      135
 150.7000      147
 150.7200      161
 150.7400      149
 150.7600      174
 150.7800      164
 150.8000      162
 150.8200      174
 150.8400      140
 150.8600      152
 150.8800      167
 150.9000      153
 150.9200      171
 150.9400      172
 150.9600      170
 150.9800      166
 151.0000      154
 151.0200      171
 151.0400      156
 151.0600      175
 151.0800      198
 151.1000      168
 151.1200      140
 151.1400      166
 151.1600      166
 151.1800      170
 151.2000      179
 151.2200      162
 151.2400      179
 151.2600      170
 151.2800      175
 151.3000      151
 151.3200      170
 151.3400      169
 151.3600      177
 151.3800      184
 151.4000      190
 151.4200      175
 151.4400      194
 151.4600      200
 151.4800      202
 151.5000      179
 151.5200      198
 151.5400      202
 151.5600      199
 151.5800      199
 151.6000      197
 151.6200      218
 151.6400      184
 151.6600      229
 151.6800      200
 151.7000      180
 151.7200      213
 151.7400      213
 151.7600      218
 151.7800      217
 151.8000      215
 151.8200      225
 151.8400      231
 151.8600      210
 151.8800      234
 151.9000      235
 151.9200      212
 151.9400      227
 151.9600      231
 151.9800      265
 152.0000      242
 152.0200      241
 152.0400      235
 152.0600      238
 152.0800      244
 152.1000      245
 152.1200      229
 152.1400      252
 152.1600      223
 152.1800      222
 152.2000      246
 152.2200      288
 152.2400      252
 152.2600      253
 152.2800      251
 152.3000      259
 152.3200      221
 152.3400      272
 152.3600      293
 152.3800      258
 152.4000      284
 152.4200      287
 152.4400      289
 152.4600      296
 152.4800      251
 152.5000      291
 152.5200      315
 152.5400      280
 152.5600      251
 152.5800      283
 152.6000      278
 152.6200      285
 152.6400      289
 152.6600      304
 152.6800      300
 152.7000      289
 152.7200      281
 152.7400      306
 152.7600      284
 152.7800      304
 152.8000      300
 152.8200      327
 152.8400      323
 152.8600      328
 152.8800      326
 152.9000      327
 152.9200      324
 152.9400      319
 152.9600      293
 152.9800      346
 153.0000      336
 153.0200      335
 153.0400      331
 153.0600      334
 153.0800      328
 153.1000      358
 153.1200      317
 153.1400      319
 153.1600      332
 153.1800      314
 153.2000      334
 153.2200      352
 153.2400      316
 153.2600      365
 153.2800      327
 153.3000      373
 153.3200      363
 153.3400      384
 153.3600      378
 153.3800      376
 153.4000      345
 153.4200      377
 153.4400      378
 153.4600      405
 153.4800      362
 153.5000      350
 153.5200      367
 153.5400      408
 153.5600      361
 153.5800      416
 153.6000      382
 153.6200      365
 153.6400      379
 153.6600      379
 153.6800      405
 153.7000      444
 153.7200      375
 153.7400      408
 153.7600      366
 153.7800      428
 153.8000      430
 153.8200      382
 153.8400      412
 153.8600      442
 153.8800      425
 153.9000      420
 153.9200      379
 153.9400      415
 153.9600      391
 153.9800      420
 154.0000      413
 154.0200      404
 154.0400      416
 154.0600      402
 154.0800      436
 154.1000      443
 154.1200      421
 154.1400      418
 154.1600      432
 154.1800      431
 154.2000      440
 154.2200      438
 154.2400      471
 154.2600      429
 154.2800      436
 154.3000      448
 154.3200      415
 154.3400      440
 154.3600      429
 154.3800      469
 154.4000      473
 154.4200      455
 154.4400      423
 154.4600      471
 154.4800      476
 154.5000      472
 154.5200      429
 154.5400      440
 154.5600      431
 154.5800      481
 154.6000      476
 154.6200      482
 154.6400      473
 154.6600      443
 154.6800      448
 154.7000      444
 154.7200      432
 154.7400      439
 154.7600      435
 154.7800      463
 154.8000      444
 154.8200      437
 154.8400      474
 154.8600      482
 154.8800      464
 154.9000      488
 154.9200      423
 154.9400      466
 154.9600      467
 154.9800      457
 155.0000      460