File: XRD_Tool/XRD_Tool/bin/Debug/SDD_sample_name_01234_Psi-15_20180602-171627.txt
 150.0000      109
 150.0200      126
 150.0400      140
 150.0600      108
 150.0800      133
 150.1000      124
 150.1200      123
 150.1400      123
 150.1600      125
 150.1800      110
 150.2000      127
 150.2200      118
 150.2400      134
 150.2600      120
 150.2800      141
 150.3000      134
 150.3200      127
 150.3400      115
 150.3600      122
 150.3800      146
 150.4000      126
 150.4200      154
 150.4400      119
 150.4600      132
 150.4800      117
 150.5000      126
 150.5200      135
 150.5400      151
 150.5600      138
 150.5800      134
 150.6000      156
 150.6200      126
 150.6400      147
 150.6600      161
 150.6800      137
 150.7000      159
 150.7200      152
 150.7400      161
 150.7600      158
 150.7800      116
 150.8000      159
 150.8200      146
 150.8400      135
 150.8600      152
 150.8800      169
 150.9000      166
 150.9200      168
 150.9400      184
 150.9600      145
 150.9800      159
 151.0000      150
 151.0200      176
 151.0400      170
 151.0600      184
 151.0800      160
 151.1000      175
 151.1200      151
 151.1400      161
 151.1600      168
 151.1800      160
 151.2000      173
 151.2200      170
 151.2400      159
 151.2600      158
 151.2800      201
 151.3000      187
 151.3200      171
 151.3400      186
 151.3600      185
 151.3800      185
 151.4000      196
 151.4200      193
 151.4400      188
 151.4600      179
 151.4800      193
 151.5000      197
 151.5200      212
 151.5400      183
 151.5600      200
 151.5800      202
 151.6000      176
 151.6200      201
 151.6400      189
 151.6600      192
 151.6800      248
 151.7000      196
 151.7200      200
 151.7400      237
 151.7600      211
 151.7800      197
 151.8000      194
 151.8200      203
 151.8400      207
 151.8600      199
 151.8800      210
 151.9000      206
 151.9200      179
 151.9400      205
 151.9600      238
 151.9800      233
 152.0000      225
 152.0200      241
 152.0400      193
 152.0600      229
 152.0800      239
 152.1000      243
 152.1200      236
 152.1400      239
 152.1600      226
 152.1800      240
 152.2000      252
 152.2200      225
 152.2400      262
 152.2600      260
 152.2800      266
 152.3000      240
 152.3200      257
 152.3400      266
 152.3600      251
 152.3800      255
 152.4000      242
 152.4200      274
 152.4400      268
 152.4600      269
 152.4800      276
 152.5000      251
 152.5200      276
 152.5400      285
 152.5600      290
 152.5800      266
 152.6000      269
 152.6200      320
 152.6400      308
 152.6600      293
 152.6800      275
 152.7000      299
 152.7200      279
 152.7400      283
 152.7600      290
 152.7800      296
 152.8000      314
 152.8200      304
 152.8400      303
 152.8600      317
 152.8800      293
 152.9000      323
 152.9200      316
 152.9400      331
 152.9600      319
 152.9800      342
 153.0000      330
 153.0200      343
 153.0400      337
 153.0600      342
 153.0800      342
 153.1000      346
 153.1200      341
 153.1400      339
 153.1600      367
 153.1800      331
 153.2000      351
 153.2200      362
 153.2400      354
 153.2600      363
 153.2800      355
 153.3000      359
 153.3200      374
 153.3400      355
 153.3600      366
 153.3800      343
 153.4000      382
 153.4200      373
 153.4400      344
 153.4600      358
 153.4800      382
 153.5000      354
 153.5200      367
 153.5400      401
 153.5600      365
 153.5800      403
 153.6000      398
 153.6200      375
 153.6400      422
 153.6600      386
 153.6800      387
 153.7000      397
 153.7200      387
 153.7400      398
 153.7600      374
 153.7800      404
 153.8000      426
 153.8200      436
 153.8400      402
 153.8600      422
 153.8800      416
 153.9000      440
 153.9200      406
 153.9400      416
 153.9600      386
 153.9800      368
 154.0000      428
 154.0200      417
 154.0400      411
 154.0600      384
 154.0800      424
 154.1000      443
 154.1200      416
 154.1400      432
 154.1600      420
 154.1800      398
 154.2000      421
 154.2200      453
 154.2400      448
 154.2600      469
 154.2800      437
 154.3000      420
 154.3200      417
 154.3400      428
 154.3600      454
 154.3800      446
 154.4000      441
 154.4200      474
 154.4400      442
 154.4600      451
 154.4800      441
 154.5000      476
 154.5200      438
 154.5400      429
 154.5600      456
 154.5800      447
 154.6000      464
 154.6200      455
 154.6400      511
 154.6600      443
 154.6800      464
 154.7000      441
 154.7200      452
 154.7400      451
 154.7600      469
 154.7800      417
 154.8000      471
 154.8200      484
 154.8400      432
 154.8600      456
 154.8800      450
 154.9000      480
 154.9200      445
 154.9400      462
 154.9600      450
 154.9800      444
 155.0000      471