File: XRD_Tool/XRD_Tool/bin/Debug/SDD_sample_name_01234_Psi-0_20180602-102913.txt
 145.0000       37
 145.0200       32
 145.0400       52
 145.0600       37
 145.0800       39
 145.1000       46
 145.1200       42
 145.1400       44
 145.1600       44
 145.1800       27
 145.2000       34
 145.2200       40
 145.2400       46
 145.2600       41
 145.2800       36
 145.3000       33
 145.3200       43
 145.3400       34
 145.3600       48
 145.3800       35
 145.4000       42
 145.4200       42
 145.4400       29
 145.4600       33
 145.4800       32
 145.5000       49
 145.5200       27
 145.5400       47
 145.5600       33
 145.5800       38
 145.6000       36
 145.6200       47
 145.6400       40
 145.6600       39
 145.6800       28
 145.7000       38
 145.7200       52
 145.7400       50
 145.7600       52
 145.7800       45
 145.8000       35
 145.8200       37
 145.8400       45
 145.8600       40
 145.8800       50
 145.9000       41
 145.9200       41
 145.9400       38
 145.9600       30
 145.9800       41
 146.0000       39
 146.0200       41
 146.0400       36
 146.0600       37
 146.0800       40
 146.1000       39
 146.1200       42
 146.1400       41
 146.1600       32
 146.1800       52
 146.2000       47
 146.2200       52
 146.2400       37
 146.2600       41
 146.2800       54
 146.3000       42
 146.3200       49
 146.3400       35
 146.3600       35
 146.3800       44
 146.4000       49
 146.4200       32
 146.4400       43
 146.4600       43
 146.4800       42
 146.5000       33
 146.5200       33
 146.5400       40
 146.5600       37
 146.5800       44
 146.6000       44
 146.6200       36
 146.6400       37
 146.6600       42
 146.6800       41
 146.7000       39
 146.7200       51
 146.7400       43
 146.7600       33
 146.7800       50
 146.8000       52
 146.8200       41
 146.8400       54
 146.8600       45
 146.8800       37
 146.9000       43
 146.9200       42
 146.9400       40
 146.9600       31
 146.9800       41
 147.0000       39
 147.0200       38
 147.04