File: XRD_Tool/XRD_Tool/bin/Debug/SDD_sample_name_01234_Psi-0_20180602-101616.txt
 145.0000       37
 145.0000       37
 145.0400       42
 145.0400       42
 145.0800       38
 145.0800       38
 145.1200       41
 145.1200       41
 145.1600       49
 145.1600       49
 145.2000       46
 145.2000       46
 145.2400       48
 145.2400       48
 145.2800       39
 145.2800       39
 145.3200       47
 145.3200       47
 145.3600       43
 145.3600       43
 145.4000       45
 145.4000       45
 145.4400       34
 145.4400       34
 145.4800       31
 145.4800       31
 145.5200       46
 145.5200       46
 145.5600       51
 145.5600       51
 145.6000       50
 145.6000       50
 145.6400       47
 145.6400       47
 145.6800       29
 145.6800       29
 145.7200       36
 145.7200       36
 145.7600       35
 145.7600       35
 145.8000       40
 145.8000       40
 145.8400       40
 145.8400       40
 145.8800       38
 145.8800       38
 145.9200       41
 145.9200       41
 145.9600       27
 145.9600       27
 146.0000       50
 146.0000       50
 146.0400       46
 146.0400       46
 146.0800       44
 146.0800       44
 146.1200       37
 146.1200       37
 146.1600       52
 146.1600       52
 146.2000       50
 146.2000       50
 146.2400       44
 146.2400       44
 146.2800       47
 146.2800       47
 146.3200       42
 146.3200       42
 146.3600       41
 146.3600       41
 146.4000       35
 146.4000       35
 146.4400       28
 146.4400       28
 146.4800       45
 146.4800       45
 146.5200       36
 146.5200       36
 146.5600       44
 146.5600       44
 146.6000       41
 146.6400       40
 146.6200       42
 146.6600       37
 146.6600       37
 146.7000       44
 146.7000       44
 146.7400       53
 146.7400       53
 146.7800       39
 146.7800       39
 146.8200       43
 146.8200       43
 146.8600       39
 146.8600       39
 146.9000       40
 146.9000       40
 146.9400       32
 146.9400       32
 146.9800       32
 146.9800       32
 147.0200       32
 147.0200       32
 147.0600       37
 147.0600       37
 147.1000       49
 147.1000       49
 147.1400       37
 147.1400       37
 147.1800       56
 147.1800       56
 147.2200       30
 147.2200       30
 147.2600       40
 147.2600       40
 147.3000       49
 147.3000       49
 147.3400       53
 147.3400       53
 147.3800       43
 147.3800       43
 147.4200       40
 147.4200       40
 147.4600       44
 147.4600       44
 147.5000       45
 147.5000       45
 147.5400       45
 147.5400       45
 147.5800       46
 147.5800       46
 147.6200       35
 147.6200       35
 147.6600       40
 147.6600       40
 147.7000       49
 147.7000       49
 147.7400       42
 147.7400       42
 147.7800       33
 147.7800       33
 147.8200       41
 147.8200       41
 147.8600       53
 147.8600       53
 147.9000       35
 147.9000       35
 147.9400       44
 147.9400       44
 147.9800       45
 147.9800       45
 148.0200       51
 148.0200       51
 148.0600       38
 148.0600       38
 148.1000       41
 148.1000       41
 148.1400       45
 148.1400       45
 148.1800       53
 148.1800       53
 148.2200       45
 148.2200       45
 148.2600       51
 148.2600       51
 148.3000       50
 148.3000       50
 148.3400       44
 148.3400       44
 148.3800       43
 148.3800       43
 148.4200       55
 148.4200       55
 148.4600       31
 148.4600       31
 148.5000       48
 148.5000       48
 148.5400       54
 148.5400       54
 148.5800       47
 148.5800       47
 148.6200       62
 148.6200       62
 148.6600       50
 148.6600       50
 148.7000       29
 148.7400       38
 148.7200       49
 148.7600       32
 148.7600       32
 148.8000       33
 148.8000       33
 148.8400       53
 148.8400       53
 148.8800       50
 148.8800       50
 148.9200       47
 148.9200       47
 148.9600       36
 148.9600       36
 149.0000       60
 149.0000       60
 149.0400       40
 149.0400       40
 149.0800       44
 149.0800       44
 149.1200       56
 149.1200       56
 149.1600       33
 149.1600       33
 149.2000       50
 149.2000       50
 149.2400       48
 149.2400       48
 149.2800       50
 149.2800       50
 149.3200       47
 149.3600       53
 149.3400       48
 149.3800       36
 149.3800       36
 149.4200       44
 149.4200       44
 149.4600       64
 149.4600       64
 149.5000       48
 149.5000       48
 149.5400       46
 149.5400       46
 149.5800       53
 149.5800       53
 149.6200       57
 149.6200       57
 149.6600       52
 149.6600       52
 149.7000       54
 149.7000       54
 149.7400       53
 149.7400       53
 149.7800       56
 149.7800       56
 149.8200       62
 149.8200       62
 149.8600       61
 149.8600       61
 149.9000       45
 149.9000       45
 149.9400       46
 149.9400       46
 149.9800       55
 149.9800       55
 150.0000       70