File: XRD_Tool/XRD_Tool/bin/Debug/SDD_sample_name_01234_Psi-45_20180602-173518.txt
 150.0000      102
 150.0200       89
 150.0400      103
 150.0600      106
 150.0800       90
 150.1000       95
 150.1200      105
 150.1400       95
 150.1600       86
 150.1800      107
 150.2000       85
 150.2200      121
 150.2400       97
 150.2600       94
 150.2800       83
 150.3000      106
 150.3200       96
 150.3400       87
 150.3600      107
 150.3800      101
 150.4000       87
 150.4200      104
 150.4400       93
 150.4600       98
 150.4800       91
 150.5000       92
 150.5200       91
 150.5400      100
 150.5600       89
 150.5800      106
 150.6000       96
 150.6200      105
 150.6400      112
 150.6600       92
 150.6800      107
 150.7000      106
 150.7200      119
 150.7400      107
 150.7600      100
 150.7800       95
 150.8000      113
 150.8200      124
 150.8400      115
 150.8600      110
 150.8800      124
 150.9000      115
 150.9200      114
 150.9400      134
 150.9600      105
 150.9800      105
 151.0000      125
 151.0200      108
 151.0400       98
 151.0600       99
 151.0800      134
 151.1000      133
 151.1200      136
 151.1400      123
 151.1600      132
 151.1800      106
 151.2000      123
 151.2200      128
 151.2400      132
 151.2600      142
 151.2800      131
 151.3000      148
 151.3200      123
 151.3400      122
 151.3600      116
 151.3800      120
 151.4000      159
 151.4200      137
 151.4400      142
 151.4600      131
 151.4800      127
 151.5000      161
 151.5200      126
 151.5400      136
 151.5600      135
 151.5800      142
 151.6000      138
 151.6200      151
 151.6400      140
 151.6600      136
 151.6800      133
 151.7000      144
 151.7200      144
 151.7400      157
 151.7600      142
 151.7800      168
 151.8000      140
 151.8200      161
 151.8400      162
 151.8600      156
 151.8800      135
 151.9000      155
 151.9200      149
 151.9400      150
 151.9600      154
 151.9800      143
 152.0000      151
 152.0200      152
 152.0400      151
 152.0600      164
 152.0800      167
 152.1000      162
 152.1200      173
 152.1400      170
 152.1600      159
 152.1800      167
 152.2000      153
 152.2200      159
 152.2400      166
 152.2600      159
 152.2800      156
 152.3000      172
 152.3200      183
 152.3400      184
 152.3600      163
 152.3800      214
 152.4000      162
 152.4200      167
 152.4400      171
 152.4600      177
 152.4800      167
 152.5000      185
 152.5200      181
 152.5400      164
 152.5600      213
 152.5800      173
 152.6000      191
 152.6200      176
 152.6400      215
 152.6600      170
 152.6800      176
 152.7000      201
 152.7200      197
 152.7400      186
 152.7600      191
 152.7800      211
 152.8000      188
 152.8200      221
 152.8400      207
 152.8600      187
 152.8800      200
 152.9000      200
 152.9200      208
 152.9400      213
 152.9600      206
 152.9800      223
 153.0000      218
 153.0200      218
 153.0400      212
 153.0600      237
 153.0800      228
 153.1000      236
 153.1200      247
 153.1400      229
 153.1600      235
 153.1800      229
 153.2000      253
 153.2200      210
 153.2400      246
 153.2600      210
 153.2800      261
 153.3000      244
 153.3200      251
 153.3400      236
 153.3600      222
 153.3800      217
 153.4000      236
 153.4200      225
 153.4400      239
 153.4600      290
 153.4800      259
 153.5000      275
 153.5200      267
 153.5400      262
 153.5600      259
 153.5800      257
 153.6000      233
 153.6200      255
 153.6400      250
 153.6600      271
 153.6800      262
 153.7000      284
 153.7200      254
 153.7400      261
 153.7600      241
 153.7800      280
 153.8000      254
 153.8200      296
 153.8400      281
 153.8600      279
 153.8800      283
 153.9000      305
 153.9200      322
 153.9400      286
 153.9600      308
 153.9800      309
 154.0000      273
 154.0200      314
 154.0400      306
 154.0600      285
 154.0800      301
 154.1000      310
 154.1200      316
 154.1400      276
 154.1600      327
 154.1800      301
 154.2000      283
 154.2200      331
 154.2400      323
 154.2600      308
 154.2800      307
 154.3000      292
 154.3200      305
 154.3400      337
 154.3600      324
 154.3800      317
 154.4000      345
 154.4200      309
 154.4400      332
 154.4600      330
 154.4800      302
 154.5000      348
 154.5200      349
 154.5400      336
 154.5600      326
 154.5800      320
 154.6000      342
 154.6200      335
 154.6400      371
 154.6600      343
 154.6800      352
 154.7000      330
 154.7200      347
 154.7400      368
 154.7600      345
 154.7800      374
 154.8000      351
 154.8200      346
 154.8400      367
 154.8600      339
 154.8800      357
 154.9000      362
 154.9200      370
 154.9400      334
 154.9600      359
 154.9800      399
 155.0000      336