File: XRD_Tool/XRD_Tool/bin/Debug/SDD_sample_name_01234_Psi-0_20180602-105210.txt
 145.0000       46
 145.0000       46
 145.0000       46
 145.0400       40
 145.0400       40
 145.0400       40
 145.0800       33
 145.0800       33
 145.0800       33
 145.1200       34
 145.1200       34
 145.1200       34
 145.1600       43
 145.1600       43
 145.1600       43
 145.2000       38
 145.2000       38
 145.2000       38
 145.2400       40
 145.2400       40
 145.2400       40
 145.2800       29
 145.2800       29
 145.2800       29
 145.3200       35
 145.3200       35
 145.3200       35
 145.3600       37
 145.3600       37
 145.3600       37
 145.4000       35
 145.4000       35
 145.4000       35
 145.4400       38
 145.4400       38
 145.4400       38
 145.4800       39
 145.4800       39
 145.4800       39
 145.5200       52
 145.5200       52
 145.5200       52
 145.5600       35
 145.5600       35
 145.5600       35
 145.6000       39
 145.6000       39
 145.6000       39
 145.6400       35
 145.6400       35
 145.6400       35
 145.6800       34
 145.6800       34
 145.6800       34
 145.7200       27
 145.7200       27
 145.7200       27
 145.7600       39
 145.7600       39
 145.7600       39
 145.8000       48
 145.8000       48
 145.8000       48
 145.8400       46
 145.8400       46
 145.8400       46
 145.8800       37
 145.8800       37
 145.8800       37
 145.9200       26
 145.9200       26
 145.9200       26
 145.9600       47
 145.9600       47
 145.9600       47
 146.0000       44
 146.0000       44
 146.0000       44
 146.0400       39
 146.0400       39
 146.0400       39
 146.0800       36
 146.0800       36
 146.0800       36
 146.1200       32
 146.1200       32
 146.1200       32
 146.1600       36
 146.1600       36
 146.1600       36
 146.2000       43
 146.2000       43
 146.2000       43
 146.2400       34
 146.2400       34
 146.2400       34
 146.2800       35
 146.2800       35
 146.2800       35
 146.3200       41
 146.3200       41
 146.3200       41
 146.3600       50
 146.3600       50
 146.3600       50
 146.4000       23
 146.4000       23
 146.4000       23
 146.4400       46
 146.4400       46
 146.4400       46
 146.4800       42
 146.4800       42
 146.4800       42
 146.5200       48
 146.5200       48
 146.5200       48
 146.5600       44
 146.5600       44
 146.5600       44
 146.6000       47
 146.6000       47
 146.6000       47
 146.6400       33
 146.6400       33
 146.6400       33
 146.6800       46
 146.6800       46
 146.6800       46
 146.7200       36
 146.7200       36
 146.7200       36
 146.7600       46
 146.7600       46
 146.7600       46
 146.8000       38
 146.8000       38
 146.8000       38
 146.8400       36
 146.8400       36
 146.8400       36
 146.8800       38
 146.8800       38
 146.8800       38
 146.9200       41
 146.9200       41
 146.9200       41
 146.9600       43
 146.9600       43
 146.9600       43
 147.0000       36
 147.0000       36
 147.0000       36
 147.0400       36
 147.0400       36
 147.0400       36
 147.0800       51
 147.0800       51
 147.0800       51
 147.1200       35
 147.1200       35
 147.1200       35
 147.1600       44
 147.1600       44
 147.1600       44
 147.2000       40
 147.2000       40
 147.2000       40
 147.2400       47
 147.2400       47
 147.2400       47
 147.2800       36
 147.2800       36
 147.2800       36
 147.3200       46
 147.3200       46
 147.3200       46
 147.3600       34
 147.3600       34
 147.3600       34
 147.4000       45
 147.4000       45
 147.4000       45
 147.4400       53
 147.4400       53
 147.4400       53
 147.4800       49
 147.4800       49
 147.4800       49
 147.5200       49
 147.5200       49
 147.5200       49
 147.5600       47
 147.5600       47
 147.5600       47
 147.6000       45
 147.6000       45
 147.6000       45
 147.6400       54
 147.6400       54
 147.6400       54
 147.6800       37
 147.6800       37
 147.6800       37
 147.7200       48
 147.7200       48
 147.7200       48
 147.7600       37
 147.7600       37
 147.7600       37
 147.8000       41
 147.8000       41
 147.8000       41
 147.8400       46
 147.8400       46
 147.8400       46
 147.8800       44
 147.8800       44
 147.8800       44
 147.9200       53
 147.9200       53
 147.9200       53
 147.9600       33
 148.0000       44
 148.0000       44
 148.0000       44
 148.0400       49
 148.0400       49
 148.0400       49
 148.0800       49
 148.0800       49
 148.0800       49
 148.1200       36
 148.1200       36
 148.1200       36
 148.1600       39
 148.1600       39
 148.1600       39
 148.2000       33
 148.2000       33
 148.2000       33
 148.2400       39
 148.2400       39
 148.2400       39
 148.2800       42
 148.2800       42
 148.2800       42
 148.3200       43
 148.3200       43
 148.3200       43
 148.3600       41