File: XRD_Tool/XRD_Tool/bin/Debug/SDD_sample_name_001_Psi-15_20180528-074458.txt
 150.0000       56
 150.0400       59
 150.0800       73
 150.1200       76
 150.1600       70
 150.2000       75
 150.2400       79
 150.2800       66
 150.3200       72
 150.3600       84
 150.4000       69
 150.4400       65
 150.4800       65
 150.5200       70
 150.5600       78
 150.6000       70
 150.6400       81
 150.6800       67
 150.7200       79
 150.7600       84
 150.8000       58
 150.8400       55
 150.8800       65
 150.9200       78
 150.9600       75
 151.0000       77
 151.0400       65
 151.0800       71
 151.1200       73
 151.1600       95
 151.2000       83
 151.2400       76
 151.2800       92
 151.3200       79
 151.3600       82
 151.4000       90
 151.4400       92
 151.4800       87
 151.5200       90
 151.5600      115
 151.6000       96
 151.6400       85
 151.6800       97
 151.7200       86
 151.7600       75
 151.8000      109
 151.8400       88
 151.8800       99
 151.9200      115
 151.9600      103
 152.0000      114
 152.0400      111
 152.0800      128
 152.1200      118
 152.1600      108
 152.2000      132
 152.2400      132
 152.2800      133
 152.3200      122
 152.3600      122
 152.4000      142
 152.4400      131
 152.4800      156
 152.5200      128
 152.5600      134
 152.6000      158
 152.6400      140
 152.6800      165
 152.7200      142
 152.7600      160
 152.8000      166
 152.8400      191
 152.8800      181
 152.9200      149
 152.9600      174
 153.0000      173
 153.0400      209
 153.0800      211
 153.1200      216
 153.1600      212
 153.2000      226
 153.2400      237
 153.2800      235
 153.3200      225
 153.3600      252
 153.4000      278
 153.4400      271
 153.4800      292
 153.5200      300
 153.5600      256
 153.6000      302
 153.6400      305
 153.6800      309
 153.7200      313
 153.7600      368
 153.8000      334
 153.8400      318
 153.8800      351
 153.9200      370
 153.9600      395
 154.0000      359
 154.0400      375
 154.0800      416
 154.1200      372
 154.1600      416
 154.2000      417
 154.2400      393
 154.2800      438
 154.3200      429
 154.3600      443
 154.4000      438
 154.4400      447
 154.4800      449
 154.5200      457
 154.5600      444
 154.6000      459
 154.6400      451
 154.6800      477
 154.7200      493
 154.7600      465
 154.8000      475
 154.8400      466
 154.8800      468
 154.9200      464
 154.9600      489
 155.0000      467
 155.0400      480
 155.0800      494
 155.1200      507
 155.1600      438
 155.2000      478
 155.2400      426
 155.2800      460
 155.3200      469
 155.3600      448
 155.4000      458
 155.4400      411
 155.4800      445
 155.5200      439
 155.5600      428
 155.6000      424
 155.6400      404
 155.6800      368
 155.7200      378
 155.7600      368
 155.8000      340
 155.8400      359
 155.8800      338
 155.9200      370
 155.9600      378
 156.0000      352
 156.0400      301
 156.0800      322
 156.1200      316
 156.1600      331
 156.2000      318
 156.2400      313
 156.2800      286
 156.3200      311
 156.3600      268
 156.4000      290
 156.4400      261
 156.4800      255
 156.5200      260
 156.5600      229
 156.6000      244
 156.6400      248
 156.6800      228
 156.7200      231
 156.7600      222
 156.8000      219
 156.8400      216
 156.8800      240
 156.9200      203
 156.9600      192
 157.0000      176
 157.0400      194
 157.0800      198
 157.1200      185
 157.1600      194
 157.2000      173
 157.2400      152
 157.2800      179
 157.3200      169
 157.3600      156
 157.4000      156
 157.4400      140
 157.4800      170
 157.5200      151
 157.5600      142
 157.6000      150
 157.6400      145
 157.6800      126
 157.7200      146
 157.7600      126
 157.8000      118
 157.8400      113
 157.8800      131
 157.9200      116
 157.9600      116
 158.0000      134
 158.0400      119
 158.0800      117
 158.1200      113
 158.1600      125
 158.2000      120
 158.2400      109
 158.2800      100
 158.3200      127
 158.3600      103
 158.4000      103
 158.4400       87
 158.4800       95
 158.5200      105
 158.5600      102
 158.6000      115
 158.6400       89
 158.6800      103
 158.7200       89
 158.7600      104
 158.8000       94
 158.8400      100
 158.8800       77
 158.9200       96
 158.9600       81
 159.0000       93
 159.0400       96
 159.0800       97
 159.1200       87
 159.1600       99
 159.2000       96
 159.2400       84
 159.2800       82
 159.3200       80
 159.3600       81
 159.4000       81
 159.4400       70
 159.4800       91
 159.5200       77
 159.5600       77
 159.6000       68
 159.6400       72
 159.6800       75
 159.7200       86
 159.7600       72
 159.8000       71
 159.8400       66
 159.8800       62
 159.9200       80
 159.9600       69
 160.0000       74