File: XRD_Tool/XRD_Tool/bin/Debug/SDD_sample_name_001_Psi-15_20180528-025140.txt
 150.0000       52
 150.0400       66
 150.0800       72
 150.1200       76
 150.1600       67
 150.2000       72
 150.2400       67
 150.2800       72
 150.3200       60
 150.3600       63
 150.4000       66
 150.4400       86
 150.4800       82
 150.5200       60
 150.5600       95
 150.6000       77
 150.6400       84
 150.6800       78
 150.7200       63
 150.7600       70
 150.8000       79
 150.8400       75
 150.8800       79
 150.9200       91
 150.9600       72
 151.0000       92
 151.0400       81
 151.0800      100
 151.1200       80
 151.1600       83
 151.2000       84
 151.2400       84
 151.2800       77
 151.3200       94
 151.3600       96
 151.4000       99
 151.4400      116
 151.4800      102
 151.5200       97
 151.5600       83
 151.6000       90
 151.6400       94
 151.6800       71
 151.7200       97
 151.7600      103
 151.8000      101
 151.8400       97
 151.8800      109
 151.9200      105
 151.9600      105
 152.0000      112
 152.0400       98
 152.0800      108
 152.1200      103
 152.1600      128
 152.2000      119
 152.2400       99
 152.2800      113
 152.3200      123
 152.3600      121
 152.4000      146
 152.4400      125
 152.4800      112
 152.5200      138
 152.5600      159
 152.6000      167
 152.6400      173
 152.6800      156
 152.7200      172
 152.7600      135
 152.8000      176
 152.8400      185
 152.8800      164
 152.9200      175
 152.9600      186
 153.0000      191
 153.0400      196
 153.0800      182
 153.1200      219
 153.1600      208
 153.2000      216
 153.2400      230
 153.2800      233
 153.3200      251
 153.3600      227
 153.4000      239
 153.4400      254
 153.4800      265
 153.5200      280
 153.5600      251
 153.6000      300
 153.6400      285
 153.6800      306
 153.7200      295
 153.7600      330
 153.8000      302
 153.8400      332
 153.8800      371
 153.9200      369
 153.9600      336
 154.0000      378
 154.0400      378
 154.0800      369
 154.1200      389
 154.1600      396
 154.2000      427
 154.2400      430
 154.2800      401
 154.3200      392
 154.3600      442
 154.4000      414
 154.4400      463
 154.4800      476
 154.5200      475
 154.5600      438
 154.6000      455
 154.6400      462
 154.6800      427
 154.7200      453
 154.7600      489
 154.8000      456
 154.8400      454
 154.8800      492
 154.9200      450
 154.9600      477
 155.0000      486
 155.0400      445
 155.0800      474
 155.1200      482
 155.1600      433
 155.2000      420
 155.2400      453
 155.2800      490
 155.3200      444
 155.3600      427
 155.4000      429
 155.4400      440
 155.4800      386
 155.5200      412
 155.5600      426
 155.6000      405
 155.6400      391
 155.6800      408
 155.7200      388
 155.7600      351
 155.8000      356
 155.8400      392
 155.8800      366
 155.9200      368
 155.9600      327
 156.0000      337
 156.0400      342
 156.0800      313
 156.1200      334
 156.1600      314
 156.2000      289
 156.2400      303
 156.2800      298
 156.3200      269
 156.3600      282
 156.4000      277
 156.4400      265
 156.4800      255
 156.5200      249
 156.5600      245
 156.6000      265
 156.6400      227
 156.6800      241
 156.7200      227
 156.7600      213
 156.8000      199
 156.8400      203
 156.8800      189
 156.9200      192
 156.9600      207
 157.0000      226
 157.0400      210
 157.0800      188
 157.1200      166
 157.1600      166
 157.2000      159
 157.2400      145
 157.2800      152
 157.3200      171
 157.3600      132
 157.4000      144
 157.4400      144
 157.4800      149
 157.5200      151
 157.5600      137
 157.6000      145
 157.6400      152
 157.6800      147
 157.7200      140
 157.7600      143
 157.8000      140
 157.8400      124
 157.8800      147
 157.9200      152
 157.9600      126
 158.0000      131
 158.0400      131
 158.0800      125
 158.1200      125
 158.1600      115
 158.2000      123
 158.2400      136
 158.2800       97
 158.3200      106
 158.3600      103
 158.4000      121
 158.4400      115
 158.4800      100
 158.5200       96
 158.5600      104
 158.6000      118
 158.6400       99
 158.6800       88
 158.7200      105
 158.7600      105
 158.8000       98
 158.8400      107
 158.8800      102
 158.9200       91
 158.9600       92
 159.0000       97
 159.0400       86
 159.0800       86
 159.1200      101
 159.1600       80
 159.2000       87
 159.2400       86
 159.2800       88
 159.3200       88
 159.3600       89
 159.4000       90
 159.4400       85
 159.4800       86
 159.5200       89
 159.5600       66
 159.6000       77
 159.6400       79
 159.6800       82
 159.7200       78
 159.7600       79
 159.8000       74
 159.8400       78
 159.8800       74
 159.9200       71
 159.9600       75
 160.0000       80