File: XRD_Tool/XRD_Tool/bin/Debug/SDD_sample_name_01234_Psi-30_20180527-115840.txt
 147.5000       55
 147.5200       43
 147.5400       49
 147.5600       55
 147.5800       47
 147.6000       47
 147.6200       48
 147.6400       57
 147.6600       53
 147.6800       43
 147.7000       50
 147.7200       61
 147.7400       61
 147.7600       53
 147.7800       61
 147.8000       59
 147.8200       43
 147.8400       45
 147.8600       61
 147.8800       47
 147.9000       52
 147.9200       63
 147.9400       43
 147.9600       48
 147.9800       63
 148.0000       57
 148.0200       46
 148.0400       50
 148.0600       53
 148.0800       49
 148.1000       61
 148.1200       59
 148.1400       63
 148.1600       44
 148.1800       56
 148.2000       54
 148.2200       56
 148.2400       52
 148.2600       49
 148.2800       57
 148.3000       53
 148.3200       57
 148.3400       34
 148.3600       49
 148.3800       47
 148.4000       48
 148.4200       50
 148.4400       58
 148.4600       40
 148.4800       59
 148.5000       71
 148.5200       56
 148.5400       53
 148.5600       48
 148.5800       54
 148.6000       52
 148.6200       56
 148.6400       51
 148.6600       60
 148.6800       50
 148.7000       57
 148.7200       65
 148.7400       60
 148.7600       72
 148.7800       44
 148.8000       68
 148.8200       40
 148.8400       48
 148.8600       51
 148.8800       60
 148.9000       55
 148.9200       43
 148.9400       54
 148.9600       60
 148.9800       57
 149.0000       56
 149.0200       52
 149.0400       58
 149.0600       40
 149.0800       56
 149.1000       42
 149.1200       46
 149.1400       54
 149.1600       59
 149.1800       70
 149.2000       57
 149.2200       55
 149.2400       60
 149.2600       49
 149.2800       58
 149.3000       45
 149.3200       65
 149.3400       50
 149.3600       51
 149.3800       57
 149.4000       60
 149.4200       67
 149.4400       51
 149.4600       61
 149.4800       56
 149.5000       60
 149.5200       65
 149.5400       59
 149.5600       53
 149.5800       51
 149.6000       54
 149.6200       49
 149.6400       59
 149.6600       63
 149.6800       63
 149.7000       62
 149.7200       59
 149.7400       66
 149.7600       44
 149.7800       53
 149.8000       68
 149.8200       59
 149.8400       67
 149.8600       67
 149.8800       62
 149.9000       56
 149.9200       68
 149.9400       60
 149.9600       71
 149.9800       43
 150.0000       64
 150.0200       46
 150.0400       72
 150.0600       64
 150.0800       56
 150.1000       61
 150.1200       61
 150.1400       69
 150.1600       54
 150.1800       58
 150.2000       60
 150.2200       59
 150.2400       48
 150.2600       48
 150.2800       74
 150.3000       56
 150.3200       66
 150.3400       67
 150.3600       65
 150.3800       72
 150.4000       81
 150.4200       79
 150.4400       72
 150.4600       74
 150.4800       69
 150.5000       57
 150.5200       65
 150.5400       77
 150.5600       68
 150.5800       61
 150.6000       64
 150.6200       74
 150.6400       70
 150.6600       71
 150.6800       84
 150.7000       70
 150.7200       65
 150.7400       88
 150.7600       67
 150.7800       62
 150.8000       57
 150.8200       69
 150.8400       68
 150.8600       75
 150.8800       59
 150.9000       82
 150.9200       70
 150.9400       89
 150.9600       57
 150.9800       68
 151.0000       65
 151.0200       64
 151.0400       70
 151.0600       63
 151.0800       74
 151.1000       88
 151.1200       80
 151.1400       76
 151.1600       74
 151.1800      100
 151.2000       79
 151.2200       66
 151.2400       75
 151.2600       75
 151.2800       80
 151.3000       74
 151.3200       89
 151.3400      107
 151.3600       70
 151.3800       83
 151.4000       67
 151.4200       83
 151.4400       87
 151.4600       74
 151.4800       82
 151.5000      101
 151.5200       97
 151.5400       81
 151.5600       80
 151.5800       72
 151.6000       80
 151.6200       84
 151.6400       85
 151.6600       99
 151.6800       74
 151.7000       88
 151.7200       86
 151.7400       89
 151.7600       72
 151.7800      105
 151.8000       71
 151.8200       88
 151.8400       87
 151.8600       97
 151.8800       85
 151.9000       91
 151.9200      107
 151.9400       83
 151.9600       92
 151.9800       93
 152.0000       94
 152.0200       84
 152.0400       97
 152.0600      113
 152.0800       75
 152.1000       93
 152.1200       94
 152.1400       94
 152.1600      102
 152.1800      101
 152.2000      103
 152.2200      111
 152.2400      120
 152.2600      100
 152.2800       98
 152.3000      108
 152.3200      114
 152.3400      114
 152.3600      105
 152.3800      121
 152.4000      116
 152.4200      120
 152.4400       93
 152.4600      119
 152.4800      117
 152.5000      125