File: XRD_Tool/XRD_Tool/bin/Debug/SDD_sample_name_01234_Psi-0_20180602-104814.txt
 145.0000       42
 145.0400       43
 145.0800       47
 145.1200       44
 145.1600       50
 145.2000       35
 145.2400       35
 145.2800       33
 145.3200       32
 145.3600       46
 145.4000       39
 145.4400       43
 145.4800       34
 145.5200       34
 145.5600       42
 145.6000       41
 145.6400       35
 145.6800       33
 145.7200       38
 145.7600       39
 145.8000       49
 145.8400       36
 145.8800       33
 145.9200       42
 145.9600       41
 146.0000       52
 146.0400       33
 146.0800       34
 146.1200       33
 146.1600       31
 146.2000       39
 146.2400       28
 146.2800       45
 146.3200       43
 146.3600       47
 146.4000       41
 146.4400       41
 146.4800       27
 146.5200       32
 146.5600       39
 146.6000       41
 146.6400       31
 146.6800       44
 146.7200       34
 146.7600       35
 146.8000       39
 146.8400       39
 146.8800       37
 146.9200       41
 146.9600       48
 147.0000       45
 147.0400       43
 147.0800       49
 147.1200       44
 147.1600       39
 147.2000       40
 147.2400       29
 147.2800       63
 147.3200       35
 147.3600       42
 147.4000       44
 147.4400       49
 147.4800       37
 147.5200       54
 147.5600       47
 147.6000       40
 147.6400       54
 147.6800       25
 147.7200       50
 147.7600       31
 147.8000       44
 147.8400       47
 147.8800       37
 147.9200       38
 147.9600       58
 148.0000       41
 148.0400       36
 148.0800       33
 148.1200       42
 148.1600       42
 148.2000       50
 148.2400       47
 148.2800       38
 148.3200       45
 148.3600       55
 148.4000       40
 148.4400       59
 148.4800       48
 148.5200       47
 148.5600       43
 148.6000       43
 148.6400       56
 148.6800       42
 148.7200       51
 148.7600       53
 148.8000       37
 148.8400       48
 148.8800       57
 148.9200       39
 148.9600       41
 149.0000       57
 149.0400       49
 149.0800       49
 149.1200       43
 149.1600       57
 149.2000       47
 149.2400       42
 149.2800       51
 149.3200       59
 149.3600       52
 149.4000       38
 149.4400       54
 149.4800       43
 149.5200       53
 149.5600       52
 149.6000       51
 149.6400       59
 149.6800       60
 149.7200       51
 149.7600       50
 149.8000       49
 149.8400       57
 149.8800       61
 149.9200       54
 149.9600       55
 150.0000       46
 150.0400       56
 150.0800       62
 150.1200       62
 150.1600       47
 150.2000       60
 150.2400       60
 150.2800       48
 150.3200       62
 150.3600       76
 150.4000       55
 150.4400       64
 150.4800       78
 150.5200       63
 150.5600       73
 150.6000       53
 150.6400       63
 150.6800       67
 150.7200       62
 150.7600       60
 150.8000       66
 150.8400       72
 150.8800       63
 150.9200       82
 150.9600       68
 151.0000       51
 151.0400       69
 151.0800       65
 151.1200       69
 151.1600       66
 151.2000       68
 151.2400       85
 151.2800       85
 151.3200       70
 151.3600       84
 151.4000       91
 151.4400       93
 151.4800       88
 151.5200       82
 151.5600       96
 151.6000       78
 151.6400       77
 151.6800       74
 151.7200       83
 151.7600       91
 151.8000       97
 151.8400       90
 151.8800      109
 151.9200       91
 151.9600      114
 152.0000      123
 152.0400      109
 152.0800      118
 152.1200      104
 152.1600      140
 152.2000      120
 152.2400      102
 152.2800      118
 152.3200      126
 152.3600      135
 152.4000      136
 152.4400      144
 152.4800      141
 152.5200      144
 152.5600      147
 152.6000      154
 152.6400      154
 152.6800      181
 152.7200      187
 152.7600      170
 152.8000      182
 152.8400      166
 152.8800      189
 152.9200      210
 152.9600      215
 153.0000      193
 153.0400      203
 153.0800      239
 153.1200      248
 153.1600      229
 153.2000      248
 153.2400      258
 153.2800      226
 153.3200      267
 153.3600      266
 153.4000      266
 153.4400      282
 153.4800      275
 153.5200      307
 153.5600      289
 153.6000      345
 153.6400      304
 153.6800      328
 153.7200      319
 153.7600      375
 153.8000      376
 153.8400      349
 153.8800      383
 153.9200      442
 153.9600      405
 154.0000      387
 154.0400      406
 154.0800      410
 154.1200      417
 154.1600      467
 154.2000      425
 154.2400      434
 154.2800      432
 154.3200      473
 154.3600      468
 154.4000      466
 154.4400      490
 154.4800      472
 154.5200      471
 154.5600      474
 154.6000      487
 154.6400      493
 154.6800      497
 154.7200      517
 154.7600      521
 154.8000      526
 154.8400      471
 154.8800      468
 154.9200      456
 154.9600      520
 155.0000      460