File: XRD_Tool/XRD_Tool/bin/Debug/SDD_sample_name_01234_Psi-30_20180602-173451.txt
 150.0000       98
 150.0200       94
 150.0400       90
 150.0600      120
 150.0800      112
 150.1000      109
 150.1200      109
 150.1400      108
 150.1600      101
 150.1800      110
 150.2000      113
 150.2200      116
 150.2400      106
 150.2600       99
 150.2800      115
 150.3000      129
 150.3200      108
 150.3400      127
 150.3600      148
 150.3800      114
 150.4000      114
 150.4200       95
 150.4400      109
 150.4600      116
 150.4800      128
 150.5000      116
 150.5200      108
 150.5400      103
 150.5600      101
 150.5800      133
 150.6000      116
 150.6200      120
 150.6400      136
 150.6600      139
 150.6800      112
 150.7000      116
 150.7200      130
 150.7400      104
 150.7600      117
 150.7800      134
 150.8000      112
 150.8200      140
 150.8400      115
 150.8600      131
 150.8800      120
 150.9000      126
 150.9200      129
 150.9400      145
 150.9600      136
 150.9800      128
 151.0000      138
 151.0200      146
 151.0400      136
 151.0600      148
 151.0800      134
 151.1000      153
 151.1200      150
 151.1400      141
 151.1600      138
 151.1800      135
 151.2000      141
 151.2200      145
 151.2400      143
 151.2600      141
 151.2800      141
 151.3000      155
 151.3200      149
 151.3400      154
 151.3600      133
 151.3800      131
 151.4000      134
 151.4200      148
 151.4400      154
 151.4600      128
 151.4800      154
 151.5000      166
 151.5200      165
 151.5400      152
 151.5600      137
 151.5800      153
 151.6000      140
 151.6200      157
 151.6400      150
 151.6600      161
 151.6800      162
 151.7000      159
 151.7200      157
 151.7400      168
 151.7600      161
 151.7800      169
 151.8000      186
 151.8200      187
 151.8400      162
 151.8600      206
 151.8800      194
 151.9000      175
 151.9200      196
 151.9400      179
 151.9600      193
 151.9800      189
 152.0000      180
 152.0200      198
 152.0400      180
 152.0600      188
 152.0800      181
 152.1000      187
 152.1200      195
 152.1400      214
 152.1600      206
 152.1800      184
 152.2000      207
 152.2200      204
 152.2400      203
 152.2600      214
 152.2800      214
 152.3000      210
 152.3200      203
 152.3400      211
 152.3600      235
 152.3800      217
 152.4000      217
 152.4200      242
 152.4400      208
 152.4600      255
 152.4800      219
 152.5000      203
 152.5200      213
 152.5400      230
 152.5600      246
 152.5800      225
 152.6000      255
 152.6200      256
 152.6400      233
 152.6600      264
 152.6800      262
 152.7000      257
 152.7200      244
 152.7400      231
 152.7600      260
 152.7800      230
 152.8000      243
 152.8200      215
 152.8400      235
 152.8600      266
 152.8800      249
 152.9000      220
 152.9200      262
 152.9400      257
 152.9600      276
 152.9800      268
 153.0000      265
 153.0200      276
 153.0400      290
 153.0600      277
 153.0800      245
 153.1000      282
 153.1200      291
 153.1400      290
 153.1600      275
 153.1800      296
 153.2000      277
 153.2200      295
 153.2400      264
 153.2600      298
 153.2800      302
 153.3000      258
 153.3200      268
 153.3400      283
 153.3600      277
 153.3800      297
 153.4000      333
 153.4200      327
 153.4400      312
 153.4600      306
 153.4800      297
 153.5000      333
 153.5200      313
 153.5400      304
 153.5600      327
 153.5800      345
 153.6000      319
 153.6200      314
 153.6400      316
 153.6600      316
 153.6800      314
 153.7000      327
 153.7200      312
 153.7400      316
 153.7600      322
 153.7800      334
 153.8000      349
 153.8200      314
 153.8400      335
 153.8600      323
 153.8800      325
 153.9000      354
 153.9200      360
 153.9400      328
 153.9600      370
 153.9800      377
 154.0000      348
 154.0200      386
 154.0400      354
 154.0600      371
 154.0800      361
 154.1000      382
 154.1200      336
 154.1400      410
 154.1600      344
 154.1800      385
 154.2000      350
 154.2200      392
 154.2400      410
 154.2600      398
 154.2800      399
 154.3000      357
 154.3200      405
 154.3400      375
 154.3600      379
 154.3800      383
 154.4000      384
 154.4200      378
 154.4400      357
 154.4600      401
 154.4800      406
 154.5000      392
 154.5200      425
 154.5400      385
 154.5600      405
 154.5800      401
 154.6000      416
 154.6200      357
 154.6400      367
 154.6600      409
 154.6800      424
 154.7000      385
 154.7200      381
 154.7400      432
 154.7600      380
 154.7800      443
 154.8000      392
 154.8200      398
 154.8400      411
 154.8600      433
 154.8800      403
 154.9000      452
 154.9200      414
 154.9400      418
 154.9600      414
 154.9800      427
 155.0000      441