File: XRD_Tool/XRD_Tool/bin/Debug/SDD_sample_name_01234_Psi-30_20180527-125307.txt
 147.5000       59
 147.5200       50
 147.5400       54
 147.5600       37
 147.5800       52
 147.6000       51
 147.6200       62
 147.6400       49
 147.6600       54
 147.6800       56
 147.7000       55
 147.7200       57
 147.7400       34
 147.7600       38
 147.7800       57
 147.8000       56
 147.8200       56
 147.8400       48
 147.8600       47
 147.8800       61
 147.9000       43
 147.9200       67
 147.9400       50
 147.9600       41
 147.9800       60
 148.0000       54
 148.0200       65
 148.0400       56
 148.0600       55
 148.0800       55
 148.1000       39
 148.1200       56
 148.1400       40
 148.1600       54
 148.1800       68
 148.2000       52
 148.2200       57
 148.2400       43
 148.2600       55
 148.2800       51
 148.3000       62
 148.3200       56
 148.3400       39
 148.3600       51
 148.3800       55
 148.4000       51
 148.4200       53
 148.4400       49
 148.4600       57
 148.4800       59
 148.5000       68
 148.5200       56
 148.5400       51
 148.5600       52
 148.5800       53
 148.6000       71
 148.6200       51
 148.6400       55
 148.6600       76
 148.6800       43
 148.7000       49
 148.7200       53
 148.7400       50
 148.7600       72
 148.7800       54
 148.8000       61
 148.8200       57
 148.8400       69
 148.8600       51
 148.8800       44
 148.9000       47
 148.9200       49
 148.9400       51
 148.9600       45
 148.9800       56
 149.0000       65
 149.0200       69
 149.0400       64
 149.0600       47
 149.0800       48
 149.1000       55
 149.1200       55
 149.1400       49
 149.1600       54
 149.1800       61
 149.2000       38
 149.2200       55
 149.2400       53
 149.2600       54
 149.2800       50
 149.3000       47
 149.3200       64
 149.3400       53
 149.3600       51
 149.3800       63
 149.4000       64
 149.4200       59
 149.4400       50
 149.4600       54
 149.4800       65
 149.5000       65
 149.5200       63
 149.5400       63
 149.5600       71
 149.5800       55
 149.6000       52
 149.6200       60
 149.6400       62
 149.6600       48
 149.6800       52
 149.7000       61
 149.7200       60
 149.7400       68
 149.7600       65
 149.7800       51
 149.8000       55
 149.8200       52
 149.8400       59
 149.8600       75
 149.8800       67
 149.9000       59
 149.9200       71
 149.9400       68
 149.9600       56
 149.9800       75
 150.0000       51
 150.0200       64
 150.0400       55
 150.0600       64
 150.0800       53
 150.1000       76
 150.1200       58
 150.1400       67
 150.1600       65
 150.1800       69
 150.2000       49
 150.2200       64
 150.2400       73
 150.2600       62
 150.2800       46
 150.3000       68
 150.3200       68
 150.3400       73
 150.3600       63
 150.3800       71
 150.4000       69
 150.4200       60
 150.4400       63
 150.4600       67
 150.4800       55
 150.5000       62
 150.5200       69
 150.5400       61
 150.5600       73
 150.5800       86
 150.6000       63
 150.6200       60
 150.6400       71
 150.6600       63
 150.6800       69
 150.7000       71
 150.7200       53
 150.7400       72
 150.7600       80
 150.7800       66
 150.8000       61
 150.8200       52
 150.8400       60
 150.8600       72
 150.8800       72
 150.9000       66
 150.9200       83
 150.9400       66
 150.9600       78
 150.9800       87
 151.0000       80
 151.0200       77
 151.0400       63
 151.0600       87
 151.0800       63
 151.1000       79
 151.1200       61
 151.1400       71
 151.1600       62
 151.1800       69
 151.2000       74
 151.2200       86
 151.2400       61
 151.2600       64
 151.2800       70
 151.3000       84
 151.3200       74
 151.3400       77
 151.3600       63
 151.3800       66
 151.4000       87
 151.4200       61
 151.4400       75
 151.4600       81
 151.4800       81
 151.5000       76
 151.5200       84
 151.5400       81
 151.5600       78
 151.5800       75
 151.6000       78
 151.6200       93
 151.6400       89
 151.6600      100
 151.6800       86
 151.7000       81
 151.7200       98
 151.7400       82
 151.7600       87
 151.7800       74
 151.8000       86
 151.8200       84
 151.8400       98
 151.8600       78
 151.8800       80
 151.9000       87
 151.9200       90
 151.9400      102
 151.9600       86
 151.9800       79
 152.0000      107
 152.0200      122
 152.0400      108
 152.0600      110
 152.0800       88
 152.1000      102
 152.1200      102
 152.1400       97
 152.1600      119
 152.1800       72
 152.2000      112
 152.2200      106
 152.2400      115
 152.2600      109
 152.2800      102
 152.3000      115
 152.3200      109
 152.3400      129
 152.3600      106
 152.3800       96
 152.4000      125
 152.4200      120
 152.4400      107
 152.4600      110
 152.4800      121
 152.5000      128