File: XRD_Tool/XRD_Tool/bin/Debug/SDD_sample_name_01234_Psi-30_20180527-115902.txt
 147.5000       53
 147.5200       55
 147.5400       47
 147.5600       53
 147.5800       51
 147.6000       46
 147.6200       29
 147.6400       46
 147.6600       53
 147.6800       54
 147.7000       40
 147.7200       54
 147.7400       43
 147.7600       56
 147.7800       46
 147.8000       55
 147.8200       66
 147.8400       46
 147.8600       56
 147.8800       53
 147.9000       53
 147.9200       57
 147.9400       59
 147.9600       58
 147.9800       56
 148.0000       55
 148.0200       54
 148.0400       44
 148.0600       42
 148.0800       46
 148.1000       49
 148.1200       48
 148.1400       59
 148.1600       48
 148.1800       44
 148.2000       50
 148.2200       57
 148.2400       58
 148.2600       45
 148.2800       52
 148.3000       55
 148.3200       48
 148.3400       59
 148.3600       58
 148.3800       53
 148.4000       53
 148.4200       57
 148.4400       44
 148.4600       53
 148.4800       53
 148.5000       48
 148.5200       50
 148.5400       54
 148.5600       48
 148.5800       54
 148.6000       60
 148.6200       53
 148.6400       61
 148.6600       52
 148.6800       54
 148.7000       50
 148.7200       50
 148.7400       49
 148.7600       59
 148.7800       48
 148.8000       56
 148.8200       59
 148.8400       51
 148.8600       50
 148.8800       54
 148.9000       56
 148.9200       56
 148.9400       62
 148.9600       52
 148.9800       62
 149.0000       73
 149.0200       64
 149.0400       69
 149.0600       53
 149.0800       68
 149.1000       56
 149.1200       58
 149.1400       55
 149.1600       59
 149.1800       58
 149.2000       62
 149.2200       50
 149.2400       62
 149.2600       65
 149.2800       60
 149.3000       34
 149.3200       66
 149.3400       49
 149.3600       51
 149.3800       59
 149.4000       65
 149.4200       55
 149.4400       60
 149.4600       68
 149.4800       52
 149.5000       55
 149.5200       56
 149.5400       56
 149.5600       75
 149.5800       63
 149.6000       71
 149.6200       55
 149.6400       65
 149.6600       60
 149.6800       61
 149.7000       50
 149.7200       57
 149.7400       59
 149.7600       45
 149.7800       57
 149.8000       76
 149.8200       49
 149.8400       63
 149.8600       59
 149.8800       65
 149.9000       48
 149.9200       71
 149.9400       74
 149.9600       62
 149.9800       57
 150.0000       60
 150.0200       57
 150.0400       65
 150.0600       63
 150.0800       63
 150.1000       58
 150.1200       74
 150.1400       79
 150.1600       62
 150.1800       62
 150.2000       49
 150.2200       54
 150.2400       54
 150.2600       59
 150.2800       63
 150.3000       67
 150.3200       70
 150.3400       66
 150.3600       61
 150.3800       63
 150.4000       76
 150.4200       61
 150.4400       74
 150.4600       63
 150.4800       83
 150.5000       78
 150.5200       54
 150.5400       56
 150.5600       76
 150.5800       58
 150.6000       66
 150.6200       71
 150.6400       72
 150.6600       75
 150.6800       70
 150.7000       68
 150.7200       64
 150.7400       68
 150.7600       62
 150.7800       77
 150.8000       81
 150.8200       82
 150.8400       68
 150.8600       73
 150.8800       65
 150.9000       69
 150.9200       71
 150.9400       74
 150.9600       62
 150.9800       56
 151.0000       60
 151.0200       60
 151.0400       71
 151.0600       84
 151.0800       83
 151.1000       84
 151.1200       85
 151.1400       91
 151.1600       73
 151.1800       77
 151.2000       82
 151.2200       96
 151.2400       77
 151.2600       92
 151.2800       88
 151.3000       91
 151.3200       69
 151.3400       93
 151.3600       82
 151.3800       79
 151.4000       87
 151.4200       71
 151.4400       85
 151.4600       79
 151.4800       79
 151.5000       70
 151.5200       84
 151.5400       71
 151.5600       89
 151.5800       83
 151.6000       76
 151.6200       85
 151.6400       95
 151.6600       94
 151.6800       76
 151.7000       84
 151.7200       88
 151.7400       60
 151.7600      100
 151.7800      105
 151.8000       92
 151.8200      103
 151.8400       81
 151.8600       84
 151.8800      104
 151.9000      108
 151.9200      104
 151.9400       88
 151.9600       92
 151.9800      116
 152.0000      115
 152.0200      106
 152.0400       89
 152.0600       81
 152.0800      116
 152.1000       99
 152.1200      108
 152.1400      100
 152.1600      102
 152.1800      112
 152.2000      105
 152.2200      107
 152.2400      127
 152.2600      114
 152.2800       99
 152.3000      102
 152.3200      112
 152.3400      114
 152.3600      109
 152.3800      103
 152.4000      134
 152.4200      118
 152.4400      133
 152.4600      110
 152.4800      123
 152.5000      114