File: XRD_Tool/XRD_Tool/bin/Debug/SDD_sample_name_001_Psi-15_20180528-050438.txt
 150.0000       72
 150.0400       64
 150.0800       68
 150.1200       67
 150.1600       75
 150.2000       66
 150.2400       73
 150.2800       70
 150.3200       62
 150.3600       56
 150.4000       63
 150.4400       70
 150.4800       80
 150.5200       72
 150.5600       74
 150.6000       79
 150.6400       68
 150.6800       72
 150.7200       81
 150.7600       80
 150.8000       59
 150.8400       69
 150.8800       73
 150.9200       82
 150.9600       61
 151.0000       91
 151.0400       63
 151.0800       65
 151.1200       69
 151.1600       78
 151.2000       86
 151.2400       84
 151.2800       83
 151.3200       93
 151.3600       97
 151.4000       78
 151.4400       86
 151.4800       85
 151.5200       88
 151.5600       80
 151.6000      101
 151.6400       99
 151.6800       82
 151.7200       96
 151.7600      109
 151.8000       83
 151.8400      107
 151.8800      117
 151.9200      100
 151.9600      105
 152.0000      107
 152.0400      100
 152.0800      104
 152.1200       98
 152.1600      134
 152.2000      131
 152.2400      141
 152.2800      119
 152.3200      119
 152.3600      131
 152.4000      127
 152.4400      125
 152.4800      120
 152.5200      123
 152.5600      123
 152.6000      130
 152.6400      138
 152.6800      142
 152.7200      141
 152.7600      169
 152.8000      187
 152.8400      166
 152.8800      169
 152.9200      200
 152.9600      166
 153.0000      190
 153.0400      201
 153.0800      211
 153.1200      203
 153.1600      178
 153.2000      188
 153.2400      222
 153.2800      227
 153.3200      202
 153.3600      258
 153.4000      237
 153.4400      258
 153.4800      263
 153.5200      269
 153.5600      267
 153.6000      280
 153.6400      262
 153.6800      296
 153.7200      274
 153.7600      303
 153.8000      338
 153.8400      344
 153.8800      317
 153.9200      340
 153.9600      326
 154.0000      354
 154.0400      361
 154.0800      342
 154.1200      339
 154.1600      372
 154.2000      383
 154.2400      393
 154.2800      452
 154.3200      422
 154.3600      424
 154.4000      428
 154.4400      393
 154.4800      409
 154.5200      402
 154.5600      425
 154.6000      409
 154.6400      454
 154.6800      468
 154.7200      495
 154.7600      428
 154.8000      450
 154.8400      447
 154.8800      476
 154.9200      421
 154.9600      442
 155.0000      435
 155.0400      453
 155.0800      437
 155.1200      433
 155.1600      437
 155.2000      439
 155.2400      430
 155.2800      411
 155.3200      455
 155.3600      465
 155.4000      434
 155.4400      416
 155.4800      418
 155.5200      417
 155.5600      413
 155.6000      394
 155.6400      389
 155.6800      418
 155.7200      391
 155.7600      349
 155.8000      385
 155.8400      338
 155.8800      349
 155.9200      353
 155.9600      321
 156.0000      335
 156.0400      281
 156.0800      351
 156.1200      289
 156.1600      287
 156.2000      285
 156.2400      284
 156.2800      297
 156.3200      251
 156.3600      273
 156.4000      251
 156.4400      256
 156.4800      259
 156.5200      245
 156.5600      248
 156.6000      221
 156.6400      249
 156.6800      224
 156.7200      216
 156.7600      200
 156.8000      210
 156.8400      192
 156.8800      195
 156.9200      194
 156.9600      208
 157.0000      179
 157.0400      189
 157.0800      181
 157.1200      191
 157.1600      191
 157.2000      179
 157.2400      162
 157.2800      179
 157.3200      163
 157.3600      169
 157.4000      141
 157.4400      154
 157.4800      156
 157.5200      125
 157.5600      152
 157.6000      157
 157.6400      152
 157.6800      137
 157.7200      130
 157.7600      136
 157.8000      119
 157.8400      126
 157.8800      135
 157.9200       98
 157.9600      112
 158.0000      130
 158.0400      107
 158.0800      140
 158.1200      103
 158.1600      113
 158.2000      118
 158.2400      120
 158.2800      120
 158.3200      101
 158.3600      108
 158.4000      103
 158.4400      124
 158.4800      105
 158.5200      112
 158.5600      113
 158.6000      100
 158.6400      107
 158.6800      105
 158.7200       98
 158.7600       91
 158.8000      105
 158.8400       92
 158.8800       95
 158.9200      110
 158.9600       87
 159.0000       83
 159.0400       99
 159.0800       83
 159.1200       84
 159.1600       83
 159.2000       81
 159.2400      115
 159.2800       88
 159.3200       86
 159.3600       82
 159.4000       89
 159.4400       88
 159.4800       96
 159.5200       86
 159.5600       78
 159.6000       77
 159.6400       86
 159.6800       73
 159.7200       84
 159.7600       86
 159.8000       83
 159.8400       66
 159.8800       71
 159.9200       88
 159.9600       97
 160.0000       77