File: XRD_Tool/XRD_Tool/bin/Debug/SDD_sample_name_01234_Psi-15_20180527-123958.txt
 147.5000       51
 147.5200       56
 147.5400       70
 147.5600       60
 147.5800       57
 147.6000       50
 147.6200       51
 147.6400       47
 147.6600       50
 147.6800       55
 147.7000       43
 147.7200       47
 147.7400       48
 147.7600       56
 147.7800       55
 147.8000       71
 147.8200       62
 147.8400       45
 147.8600       54
 147.8800       43
 147.9000       51
 147.9200       55
 147.9400       62
 147.9600       51
 147.9800       66
 148.0000       46
 148.0200       65
 148.0400       61
 148.0600       51
 148.0800       66
 148.1000       58
 148.1200       58
 148.1400       57
 148.1600       62
 148.1800       50
 148.2000       69
 148.2200       62
 148.2400       62
 148.2600       46
 148.2800       57
 148.3000       57
 148.3200       59
 148.3400       54
 148.3600       57
 148.3800       66
 148.4000       51
 148.4200       56
 148.4400       49
 148.4600       60
 148.4800       49
 148.5000       60
 148.5200       58
 148.5400       41
 148.5600       64
 148.5800       42
 148.6000       50
 148.6200       51
 148.6400       55
 148.6600       45
 148.6800       59
 148.7000       65
 148.7200       66
 148.7400       53
 148.7600       57
 148.7800       56
 148.8000       58
 148.8200       49
 148.8400       62
 148.8600       51
 148.8800       67
 148.9000       46
 148.9200       54
 148.9400       58
 148.9600       65
 148.9800       66
 149.0000       55
 149.0200       49
 149.0400       64
 149.0600       52
 149.0800       56
 149.1000       64
 149.1200       58
 149.1400       64
 149.1600       58
 149.1800       66
 149.2000       43
 149.2200       63
 149.2400       50
 149.2600       75
 149.2800       57
 149.3000       62
 149.3200       59
 149.3400       53
 149.3600       65
 149.3800       60
 149.4000       54
 149.4200       47
 149.4400       53
 149.4600       54
 149.4800       61
 149.5000       65
 149.5200       61
 149.5400       63
 149.5600       65
 149.5800       54
 149.6000       65
 149.6200       63
 149.6400       72
 149.6600       67
 149.6800       64
 149.7000       69
 149.7200       60
 149.7400       70
 149.7600       59
 149.7800       54
 149.8000       59
 149.8200       67
 149.8400       63
 149.8600       64
 149.8800       52
 149.9000       58
 149.9200       70
 149.9400       69
 149.9600       59
 149.9800       63
 150.0000       70
 150.0200       73
 150.0400       63
 150.0600       69
 150.0800       78
 150.1000       79
 150.1200       67
 150.1400       63
 150.1600       59
 150.1800       44
 150.2000       78
 150.2200       57
 150.2400       66
 150.2600       63
 150.2800       82
 150.3000       69
 150.3200       55
 150.3400       69
 150.3600       61
 150.3800       79
 150.4000       63
 150.4200       79
 150.4400       74
 150.4600       70
 150.4800       75
 150.5000       65
 150.5200       74
 150.5400       87
 150.5600       59
 150.5800       81
 150.6000       85
 150.6200       93
 150.6400       92
 150.6600       75
 150.6800       68
 150.7000       67
 150.7200       73
 150.7400       77
 150.7600       86
 150.7800       56
 150.8000       76
 150.8200       82
 150.8400       65
 150.8600       80
 150.8800       76
 150.9000       73
 150.9200       81
 150.9400       71
 150.9600       92
 150.9800       69
 151.0000       75
 151.0200       93
 151.0400       81
 151.0600       84
 151.0800       86
 151.1000       74
 151.1200       88
 151.1400       90
 151.1600       86
 151.1800       77
 151.2000       73
 151.2200       95
 151.2400       70
 151.2600       65
 151.2800       88
 151.3000       92
 151.3200       76
 151.3400       83
 151.3600       85
 151.3800       78
 151.4000       95
 151.4200       93
 151.4400       77
 151.4600       97
 151.4800      108
 151.5000       98
 151.5200       96
 151.5400       80
 151.5600       90
 151.5800      107
 151.6000       98
 151.6200       94
 151.6400       99
 151.6600      102
 151.6800       96
 151.7000      112
 151.7200       80
 151.7400       92
 151.7600       96
 151.7800       91
 151.8000       96
 151.8200       92
 151.8400      109
 151.8600      119
 151.8800      114
 151.9000      104
 151.9200      111
 151.9400      109
 151.9600      119
 151.9800      120
 152.0000       99
 152.0200      113
 152.0400      129
 152.0600      102
 152.0800      104
 152.1000      128
 152.1200      118
 152.1400      117
 152.1600      119
 152.1800      113
 152.2000      112
 152.2200      122
 152.2400      139
 152.2600      128
 152.2800      128
 152.3000      134
 152.3200      122
 152.3400      128
 152.3600      140
 152.3800      135
 152.4000      122
 152.4200      154
 152.4400      135
 152.4600      144
 152.4800      160
 152.5000      144