File: XRD_Tool/XRD_Tool/bin/Debug/SDD_sample_name_01234_Psi-0_20180602-175652.txt
 150.0000      143
 150.0200      102
 150.0400      130
 150.0600      119
 150.0800      124
 150.1000      126
 150.1200      127
 150.1400      137
 150.1600      119
 150.1800      130
 150.2000      133
 150.2200      150
 150.2400      130
 150.2600      144
 150.2800      131
 150.3000      135
 150.3200      139
 150.3400      142
 150.3600      120
 150.3800      143
 150.4000      171
 150.4200      127
 150.4400      138
 150.4600      142
 150.4800      138
 150.5000      151
 150.5200      148
 150.5400      156
 150.5600      152
 150.5800      142
 150.6000      136
 150.6200      152
 150.6400      153
 150.6600      160
 150.6800      158
 150.7000      159
 150.7200      159
 150.7400      168
 150.7600      185
 150.7800      161
 150.8000      175
 150.8200      169
 150.8400      150
 150.8600      171
 150.8800      192
 150.9000      182
 150.9200      166
 150.9400      172
 150.9600      157
 150.9800      172
 151.0000      189
 151.0200      158
 151.0400      177
 151.0600      174
 151.0800      223
 151.1000      199
 151.1200      183
 151.1400      184
 151.1600      216
 151.1800      177
 151.2000      171
 151.2200      197
 151.2400      180
 151.2600      181
 151.2800      189
 151.3000      187
 151.3200      174
 151.3400      218
 151.3600      204
 151.3800      193
 151.4000      220
 151.4200      209
 151.4400      206
 151.4600      208
 151.4800      203
 151.5000      193
 151.5200      199
 151.5400      199
 151.5600      225
 151.5800      219
 151.6000      230
 151.6200      240
 151.6400      197
 151.6600      204
 151.6800      225
 151.7000      216
 151.7200      256
 151.7400      249
 151.7600      242
 151.7800      247
 151.8000      261
 151.8200      246
 151.8400      259
 151.8600      232
 151.8800      223
 151.9000      265
 151.9200      219
 151.9400      241
 151.9600      280
 151.9800      241
 152.0000      237
 152.0200      255
 152.0400      267
 152.0600      286
 152.0800      291
 152.1000      247
 152.1200      257
 152.1400      253
 152.1600      260
 152.1800      223
 152.2000      271
 152.2200      275
 152.2400      270
 152.2600      281
 152.2800      238
 152.3000      299
 152.3200      288
 152.3400      305
 152.3600      286
 152.3800      296
 152.4000      302
 152.4200      293
 152.4400      298
 152.4600      295
 152.4800      279
 152.5000      290
 152.5200      323
 152.5400      315
 152.5600      287
 152.5800      321
 152.6000      309
 152.6200      297
 152.6400      291
 152.6600      327
 152.6800      310
 152.7000      286
 152.7200      351
 152.7400      307
 152.7600      311
 152.7800      307
 152.8000      339
 152.8200      338
 152.8400      332
 152.8600      337
 152.8800      372
 152.9000      337
 152.9200      348
 152.9400      350
 152.9600      335
 152.9800      379
 153.0000      371
 153.0200      363
 153.0400      384
 153.0600      362
 153.0800      334
 153.1000      342
 153.1200      381
 153.1400      393
 153.1600      366
 153.1800      350
 153.2000      362
 153.2200      354
 153.2400      394
 153.2600      411
 153.2800      422
 153.3000      388
 153.3200      405
 153.3400      381
 153.3600      424
 153.3800      343
 153.4000      411
 153.4200      398
 153.4400      400
 153.4600      405
 153.4800      385
 153.5000      398
 153.5200      423
 153.5400      411
 153.5600      424
 153.5800      397
 153.6000      453
 153.6200      391
 153.6400      410
 153.6600      423
 153.6800      462
 153.7000      412
 153.7200      431
 153.7400      448
 153.7600      452
 153.7800      445
 153.8000      434
 153.8200      446
 153.8400      465
 153.8600      413
 153.8800      432
 153.9000      434
 153.9200      476
 153.9400      466
 153.9600      422
 153.9800      438
 154.0000      447
 154.0200      483
 154.0400      442
 154.0600      450
 154.0800      486
 154.1000      482
 154.1200      443
 154.1400      500
 154.1600      504
 154.1800      481
 154.2000      452
 154.2200      486
 154.2400      476
 154.2600      462
 154.2800      474
 154.3000      473
 154.3200      502
 154.3400      468
 154.3600      491
 154.3800      476
 154.4000      435
 154.4200      485
 154.4400      501
 154.4600      479
 154.4800      480
 154.5000      497
 154.5200      494
 154.5400      503
 154.5600      494
 154.5800      457
 154.6000      500
 154.6200      480
 154.6400      471
 154.6600      491
 154.6800      477
 154.7000      480
 154.7200      462
 154.7400      520
 154.7600      428
 154.7800      462
 154.8000      444
 154.8200      537
 154.8400      448
 154.8600      482
 154.8800      520
 154.9000      496
 154.9200      487
 154.9400      502
 154.9600      461
 154.9800      475
 155.0000      473