File: XRD_Tool/XRD_Tool/bin/Debug/SDD_sample_name_001_Psi-30_20180528-074623.txt
 150.0000       58
 150.0400       49
 150.0800       58
 150.1200       77
 150.1600       73
 150.2000       56
 150.2400       59
 150.2800       61
 150.3200       66
 150.3600       60
 150.4000       59
 150.4400       68
 150.4800       58
 150.5200       63
 150.5600       61
 150.6000       65
 150.6400       54
 150.6800       75
 150.7200       60
 150.7600       68
 150.8000       74
 150.8400       89
 150.8800       71
 150.9200       62
 150.9600       60
 151.0000       77
 151.0400       62
 151.0800       73
 151.1200       76
 151.1600       82
 151.2000       68
 151.2400       72
 151.2800       65
 151.3200       75
 151.3600       76
 151.4000       77
 151.4400       67
 151.4800       78
 151.5200       76
 151.5600      102
 151.6000       84
 151.6400      104
 151.6800       89
 151.7200       82
 151.7600       98
 151.8000       84
 151.8400       92
 151.8800       96
 151.9200       98
 151.9600      101
 152.0000      102
 152.0400      110
 152.0800      109
 152.1200       85
 152.1600       98
 152.2000      110
 152.2400      120
 152.2800      116
 152.3200      112
 152.3600      111
 152.4000      130
 152.4400      108
 152.4800      118
 152.5200      113
 152.5600      130
 152.6000      136
 152.6400      111
 152.6800      133
 152.7200      138
 152.7600      132
 152.8000      147
 152.8400      140
 152.8800      149
 152.9200      144
 152.9600      167
 153.0000      166
 153.0400      162
 153.0800      160
 153.1200      157
 153.1600      200
 153.2000      157
 153.2400      188
 153.2800      191
 153.3200      171
 153.3600      203
 153.4000      220
 153.4400      242
 153.4800      212
 153.5200      220
 153.5600      218
 153.6000      228
 153.6400      238
 153.6800      243
 153.7200      249
 153.7600      311
 153.8000      283
 153.8400      269
 153.8800      274
 153.9200      309
 153.9600      282
 154.0000      284
 154.0400      359
 154.0800      329
 154.1200      332
 154.1600      312
 154.2000      338
 154.2400      311
 154.2800      393
 154.3200      387
 154.3600      403
 154.4000      394
 154.4400      391
 154.4800      412
 154.5200      384
 154.5600      367
 154.6000      394
 154.6400      438
 154.6800      435
 154.7200      424
 154.7600      457
 154.8000      374
 154.8400      437
 154.8800      426
 154.9200      417
 154.9600      390
 155.0000      427
 155.0400      417
 155.0800      441
 155.1200      457
 155.1600      468
 155.2000      435
 155.2400      427
 155.2800      427
 155.3200      461
 155.3600      436
 155.4000      424
 155.4400      450
 155.4800      432
 155.5200      455
 155.5600      434
 155.6000      402
 155.6400      439
 155.6800      420
 155.7200      392
 155.7600      381
 155.8000      386
 155.8400      399
 155.8800      356
 155.9200      399
 155.9600      376
 156.0000      400
 156.0400      331
 156.0800      380
 156.1200      324
 156.1600      343
 156.2000      342
 156.2400      310
 156.2800      352
 156.3200      313
 156.3600      302
 156.4000      315
 156.4400      293
 156.4800      277
 156.5200      287
 156.5600      249
 156.6000      260
 156.6400      279
 156.6800      264
 156.7200      248
 156.7600      274
 156.8000      246
 156.8400      250
 156.8800      249
 156.9200      210
 156.9600      207
 157.0000      211
 157.0400      199
 157.0800      189
 157.1200      164
 157.1600      181
 157.2000      190
 157.2400      181
 157.2800      189
 157.3200      182
 157.3600      165
 157.4000      175
 157.4400      172
 157.4800      179
 157.5200      177
 157.5600      142
 157.6000      159
 157.6400      153
 157.6800      147
 157.7200      153
 157.7600      135
 157.8000      140
 157.8400      121
 157.8800      143
 157.9200      128
 157.9600      132
 158.0000      144
 158.0400      126
 158.0800      128
 158.1200      110
 158.1600      132
 158.2000      122
 158.2400      114
 158.2800      100
 158.3200      111
 158.3600      106
 158.4000      115
 158.4400      122
 158.4800      114
 158.5200      107
 158.5600      102
 158.6000      114
 158.6400      102
 158.6800      106
 158.7200       88
 158.7600       99
 158.8000      108
 158.8400      101
 158.8800      108
 158.9200       94
 158.9600       78
 159.0000       91
 159.0400       99
 159.0800       90
 159.1200       95
 159.1600       81
 159.2000       90
 159.2400      107
 159.2800       67
 159.3200      100
 159.3600       87
 159.4000       59
 159.4400       74
 159.4800       92
 159.5200       80
 159.5600       83
 159.6000       81
 159.6400       80
 159.6800       79
 159.7200       74
 159.7600       67
 159.8000       78
 159.8400       93
 159.8800       73
 159.9200       93
 159.9600       89
 160.0000       70