File: XRD_Tool/XRD_Tool/bin/Debug/SDD_sample_name_01234_Psi-45_20180602-173134.txt
 150.0000      108
 150.0200       89
 150.0400      104
 150.0600       93
 150.0800       94
 150.1000       88
 150.1200       82
 150.1400       94
 150.1600      103
 150.1800       95
 150.2000       98
 150.2200       97
 150.2400       91
 150.2600       88
 150.2800      109
 150.3000       96
 150.3200       98
 150.3400       91
 150.3600       96
 150.3800      100
 150.4000      121
 150.4200       90
 150.4400      104
 150.4600       98
 150.4800      108
 150.5000       93
 150.5200      106
 150.5400      117
 150.5600       91
 150.5800      111
 150.6000      109
 150.6200       94
 150.6400       94
 150.6600      108
 150.6800      111
 150.7000      104
 150.7200       92
 150.7400      103
 150.7600      110
 150.7800      107
 150.8000      119
 150.8200       94
 150.8400      132
 150.8600      111
 150.8800      112
 150.9000      138
 150.9200      100
 150.9400      106
 150.9600      127
 150.9800      119
 151.0000      112
 151.0200      116
 151.0400      109
 151.0600      132
 151.0800      115
 151.1000      129
 151.1200      116
 151.1400      113
 151.1600      121
 151.1800      115
 151.2000      125
 151.2200      133
 151.2400      113
 151.2600      113
 151.2800      133
 151.3000      135
 151.3200      131
 151.3400      119
 151.3600      131
 151.3800      124
 151.4000      143
 151.4200      137
 151.4400      139
 151.4600      126
 151.4800      115
 151.5000      121
 151.5200      129
 151.5400      138
 151.5600      109
 151.5800      159
 151.6000      133
 151.6200      118
 151.6400      146
 151.6600      129
 151.6800      133
 151.7000      160
 151.7200      136
 151.7400      157
 151.7600      132
 151.7800      146
 151.8000      161
 151.8200      132
 151.8400      150
 151.8600      142
 151.8800      160
 151.9000      157
 151.9200      147
 151.9400      143
 151.9600      153
 151.9800      165
 152.0000      153
 152.0200      139
 152.0400      177
 152.0600      169
 152.0800      138
 152.1000      174
 152.1200      145
 152.1400      154
 152.1600      172
 152.1800      173
 152.2000      176
 152.2200      144
 152.2400      168
 152.2600      167
 152.2800      160
 152.3000      199
 152.3200      178
 152.3400      186
 152.3600      162
 152.3800      162
 152.4000      175
 152.4200      175
 152.4400      178
 152.4600      179
 152.4800      195
 152.5000      184
 152.5200      184
 152.5400      198
 152.5600      179
 152.5800      211
 152.6000      185
 152.6200      180
 152.6400      210
 152.6600      182
 152.6800      174
 152.7000      190
 152.7200      211
 152.7400      211
 152.7600      203
 152.7800      211
 152.8000      192
 152.8200      202
 152.8400      213
 152.8600      204
 152.8800      218
 152.9000      211
 152.9200      205
 152.9400      199
 152.9600      213
 152.9800      186
 153.0000      225
 153.0200      211
 153.0400      219
 153.0600      227
 153.0800      202
 153.1000      228
 153.1200      272
 153.1400      213
 153.1600      229
 153.1800      225
 153.2000      222
 153.2200      259
 153.2400      220
 153.2600      225
 153.2800      252
 153.3000      244
 153.3200      224
 153.3400      228
 153.3600      238
 153.3800      198
 153.4000      262
 153.4200      236
 153.4400      242
 153.4600      261
 153.4800      252
 153.5000      241
 153.5200      284
 153.5400      250
 153.5600      276
 153.5800      263
 153.6000      254
 153.6200      271
 153.6400      256
 153.6600      239
 153.6800      254
 153.7000      259
 153.7200      281
 153.7400      238
 153.7600      267
 153.7800      281
 153.8000      259
 153.8200      292
 153.8400      284
 153.8600      297
 153.8800      276
 153.9000      264
 153.9200      277
 153.9400      283
 153.9600      294
 153.9800      295
 154.0000      285
 154.0200      302
 154.0400      298
 154.0600      268
 154.0800      310
 154.1000      346
 154.1200      285
 154.1400      311
 154.1600      313
 154.1800      299
 154.2000      315
 154.2200      294
 154.2400      320
 154.2600      325
 154.2800      306
 154.3000      340
 154.3200      333
 154.3400      299
 154.3600      326
 154.3800      331
 154.4000      313
 154.4200      322
 154.4400      325
 154.4600      309
 154.4800      341
 154.5000      312
 154.5200      332
 154.5400      380
 154.5600      306
 154.5800      374
 154.6000      325
 154.6200      324
 154.6400      343
 154.6600      309
 154.6800      343
 154.7000      352
 154.7200      364
 154.7400      347
 154.7600      344
 154.7800      361
 154.8000      389
 154.8200      334
 154.8400      373
 154.8600      368
 154.8800      353
 154.9000      352
 154.9200      361
 154.9400      340
 154.9600      421
 154.9800      354
 155.0000      381