File: XRD_Tool/XRD_Tool/bin/Debug/SDD_sample_name_001_Psi-20_20180528-074540.txt
 150.0000       64
 150.0400       63
 150.0800       67
 150.1200       76
 150.1600       68
 150.2000       86
 150.2400       70
 150.2800       55
 150.3200       70
 150.3600       65
 150.4000       60
 150.4400       63
 150.4800       68
 150.5200       84
 150.5600       64
 150.6000       76
 150.6400       73
 150.6800       77
 150.7200       73
 150.7600       57
 150.8000       81
 150.8400       65
 150.8800       77
 150.9200       75
 150.9600       84
 151.0000       79
 151.0400       70
 151.0800       90
 151.1200       85
 151.1600       91
 151.2000       79
 151.2400       82
 151.2800       74
 151.3200       85
 151.3600       86
 151.4000       85
 151.4400       86
 151.4800       96
 151.5200       98
 151.5600       69
 151.6000       84
 151.6400      105
 151.6800       90
 151.7200       91
 151.7600       97
 151.8000       94
 151.8400       99
 151.8800      109
 151.9200       94
 151.9600      115
 152.0000      104
 152.0400       90
 152.0800       85
 152.1200      118
 152.1600      108
 152.2000      111
 152.2400      114
 152.2800      128
 152.3200      114
 152.3600      140
 152.4000      125
 152.4400      127
 152.4800      133
 152.5200      129
 152.5600      124
 152.6000      144
 152.6400      135
 152.6800      137
 152.7200      148
 152.7600      156
 152.8000      147
 152.8400      149
 152.8800      156
 152.9200      176
 152.9600      172
 153.0000      180
 153.0400      177
 153.0800      193
 153.1200      171
 153.1600      196
 153.2000      216
 153.2400      200
 153.2800      225
 153.3200      212
 153.3600      227
 153.4000      228
 153.4400      233
 153.4800      252
 153.5200      254
 153.5600      275
 153.6000      252
 153.6400      287
 153.6800      277
 153.7200      313
 153.7600      312
 153.8000      319
 153.8400      340
 153.8800      318
 153.9200      353
 153.9600      392
 154.0000      365
 154.0400      380
 154.0800      386
 154.1200      370
 154.1600      397
 154.2000      381
 154.2400      407
 154.2800      409
 154.3200      413
 154.3600      430
 154.4000      422
 154.4400      440
 154.4800      449
 154.5200      397
 154.5600      453
 154.6000      452
 154.6400      457
 154.6800      476
 154.7200      477
 154.7600      478
 154.8000      445
 154.8400      488
 154.8800      454
 154.9200      475
 154.9600      467
 155.0000      473
 155.0400      477
 155.0800      482
 155.1200      486
 155.1600      445
 155.2000      487
 155.2400      425
 155.2800      420
 155.3200      466
 155.3600      453
 155.4000      438
 155.4400      456
 155.4800      432
 155.5200      419
 155.5600      407
 155.6000      388
 155.6400      403
 155.6800      401
 155.7200      417
 155.7600      398
 155.8000      362
 155.8400      366
 155.8800      397
 155.9200      327
 155.9600      380
 156.0000      329
 156.0400      313
 156.0800      355
 156.1200      326
 156.1600      310
 156.2000      317
 156.2400      283
 156.2800      261
 156.3200      308
 156.3600      296
 156.4000      274
 156.4400      269
 156.4800      277
 156.5200      247
 156.5600      263
 156.6000      265
 156.6400      247
 156.6800      267
 156.7200      234
 156.7600      251
 156.8000      196
 156.8400      225
 156.8800      217
 156.9200      215
 156.9600      214
 157.0000      208
 157.0400      194
 157.0800      204
 157.1200      198
 157.1600      182
 157.2000      166
 157.2400      194
 157.2800      181
 157.3200      198
 157.3600      178
 157.4000      166
 157.4400      162
 157.4800      156
 157.5200      142
 157.5600      156
 157.6000      151
 157.6400      155
 157.6800      153
 157.7200      144
 157.7600      136
 157.8000      154
 157.8400      133
 157.8800      110
 157.9200      115
 157.9600      116
 158.0000      124
 158.0400      128
 158.0800      139
 158.1200      144
 158.1600      125
 158.2000      112
 158.2400      112
 158.2800      104
 158.3200      111
 158.3600      111
 158.4000      103
 158.4400      100
 158.4800      100
 158.5200      103
 158.5600       99
 158.6000      102
 158.6400       99
 158.6800       96
 158.7200       98
 158.7600       91
 158.8000       77
 158.8400       92
 158.8800       87
 158.9200       79
 158.9600      101
 159.0000       90
 159.0400       94
 159.0800       85
 159.1200       85
 159.1600       77
 159.2000       90
 159.2400       81
 159.2800       94
 159.3200       83
 159.3600       91
 159.4000       69
 159.4400       84
 159.4800       82
 159.5200       53
 159.5600       79
 159.6000       75
 159.6400       88
 159.6800       67
 159.7200       93
 159.7600       82
 159.8000       83
 159.8400       85
 159.8800       69
 159.9200       86
 159.9600       69
 160.0000       54