File: XRD_Tool/XRD_Tool/bin/Debug/SDD_sample_name_01234_Psi-0_20180602-173010.txt
 150.0000      115
 150.0200      134
 150.0400      120
 150.0600      131
 150.0800      150
 150.1000      167
 150.1200      119
 150.1400      117
 150.1600      119
 150.1800      133
 150.2000      121
 150.2200      135
 150.2400      138
 150.2600      139
 150.2800      120
 150.3000      143
 150.3200      128
 150.3400      149
 150.3600      153
 150.3800      155
 150.4000      133
 150.4200      153
 150.4400      140
 150.4600      138
 150.4800      147
 150.5000      157
 150.5200      161
 150.5400      131
 150.5600      177
 150.5800      155
 150.6000      178
 150.6200      152
 150.6400      171
 150.6600      160
 150.6800      162
 150.7000      193
 150.7200      151
 150.7400      158
 150.7600      150
 150.7800      160
 150.8000      170
 150.8200      157
 150.8400      168
 150.8600      161
 150.8800      160
 150.9000      144
 150.9200      165
 150.9400      153
 150.9600      172
 150.9800      164
 151.0000      192
 151.0200      176
 151.0400      188
 151.0600      182
 151.0800      185
 151.1000      162
 151.1200      188
 151.1400      188
 151.1600      179
 151.1800      190
 151.2000      217
 151.2200      197
 151.2400      215
 151.2600      201
 151.2800      191
 151.3000      205
 151.3200      181
 151.3400      179
 151.3600      193
 151.3800      204
 151.4000      182
 151.4200      210
 151.4400      201
 151.4600      205
 151.4800      223
 151.5000      188
 151.5200      231
 151.5400      207
 151.5600      201
 151.5800      233
 151.6000      225
 151.6200      237
 151.6400      211
 151.6600      212
 151.6800      237
 151.7000      214
 151.7200      217
 151.7400      215
 151.7600      220
 151.7800      238
 151.8000      258
 151.8200      233
 151.8400      268
 151.8600      212
 151.8800      242
 151.9000      271
 151.9200      258
 151.9400      230
 151.9600      256
 151.9800      230
 152.0000      236
 152.0200      229
 152.0400      281
 152.0600      275
 152.0800      261
 152.1000      269
 152.1200      279
 152.1400      285
 152.1600      245
 152.1800      261
 152.2000      281
 152.2200      264
 152.2400      254
 152.2600      288
 152.2800      282
 152.3000      284
 152.3200      301
 152.3400      269
 152.3600      275
 152.3800      277
 152.4000      295
 152.4200      314
 152.4400      290
 152.4600      298
 152.4800      308
 152.5000      294
 152.5200      292
 152.5400      295
 152.5600      324
 152.5800      296
 152.6000      328
 152.6200      303
 152.6400      341
 152.6600      316
 152.6800      310
 152.7000      344
 152.7200      306
 152.7400      336
 152.7600      332
 152.7800      360
 152.8000      318
 152.8200      378
 152.8400      355
 152.8600      385
 152.8800      362
 152.9000      352
 152.9200      351
 152.9400      349
 152.9600      349
 152.9800      386
 153.0000      362
 153.0200      334
 153.0400      381
 153.0600      351
 153.0800      379
 153.1000      347
 153.1200      373
 153.1400      375
 153.1600      364
 153.1800      408
 153.2000      385
 153.2200      414
 153.2400      426
 153.2600      399
 153.2800      410
 153.3000      386
 153.3200      398
 153.3400      377
 153.3600      344
 153.3800      407
 153.4000      390
 153.4200      393
 153.4400      401
 153.4600      398
 153.4800      415
 153.5000      406
 153.5200      402
 153.5400      446
 153.5600      384
 153.5800      414
 153.6000      405
 153.6200      425
 153.6400      422
 153.6600      415
 153.6800      406
 153.7000      460
 153.7200      427
 153.7400      419
 153.7600      414
 153.7800      422
 153.8000      428
 153.8200      411
 153.8400      435
 153.8600      437
 153.8800      445
 153.9000      454
 153.9200      474
 153.9400      453
 153.9600      456
 153.9800      447
 154.0000      475
 154.0200      445
 154.0400      488
 154.0600      441
 154.0800      457
 154.1000      446
 154.1200      480
 154.1400      492
 154.1600      505
 154.1800      466
 154.2000      425
 154.2200      439
 154.2400      485
 154.2600      411
 154.2800      442
 154.3000      456
 154.3200      478
 154.3400      447
 154.3600      471
 154.3800      464
 154.4000      489
 154.4200      502
 154.4400      505
 154.4600      493
 154.4800      477
 154.5000      506
 154.5200      440
 154.5400      467
 154.5600      469
 154.5800      468
 154.6000      438
 154.6200      491
 154.6400      471
 154.6600      491
 154.6800      464
 154.7000      480
 154.7200      457
 154.7400      516
 154.7600      520
 154.7800      486
 154.8000      483
 154.8200      476
 154.8400      495
 154.8600      490
 154.8800      450
 154.9000      451
 154.9200      518
 154.9400      515
 154.9600      463
 154.9800      469
 155.0000      477