File: XRD_Tool/XRD_Tool/bin/Debug/SDD_sample_name_001_Psi-30_20180528-050523.txt
 150.0000       45
 150.0400       61
 150.0800       62
 150.1200       60
 150.1600       71
 150.2000       75
 150.2400       75
 150.2800       62
 150.3200       56
 150.3600       71
 150.4000       79
 150.4400       75
 150.4800       80
 150.5200       72
 150.5600       78
 150.6000       76
 150.6400       88
 150.6800       72
 150.7200       68
 150.7600       86
 150.8000       90
 150.8400       65
 150.8800       74
 150.9200       69
 150.9600       70
 151.0000       73
 151.0400       88
 151.0800       84
 151.1200       64
 151.1600       80
 151.2000       74
 151.2400       77
 151.2800       83
 151.3200       77
 151.3600       87
 151.4000       98
 151.4400       78
 151.4800       85
 151.5200       80
 151.5600       95
 151.6000      107
 151.6400      104
 151.6800       84
 151.7200       86
 151.7600       84
 151.8000       94
 151.8400       77
 151.8800       99
 151.9200      100
 151.9600      103
 152.0000       90
 152.0400      117
 152.0800      108
 152.1200      105
 152.1600      121
 152.2000      119
 152.2400      126
 152.2800      118
 152.3200      105
 152.3600      107
 152.4000      117
 152.4400      138
 152.4800      115
 152.5200      133
 152.5600      115
 152.6000      152
 152.6400      129
 152.6800      152
 152.7200      150
 152.7600      154
 152.8000      157
 152.8400      154
 152.8800      155
 152.9200      152
 152.9600      170
 153.0000      166
 153.0400      154
 153.0800      153
 153.1200      187
 153.1600      213
 153.2000      156
 153.2400      174
 153.2800      198
 153.3200      204
 153.3600      192
 153.4000      184
 153.4400      212
 153.4800      206
 153.5200      238
 153.5600      246
 153.6000      236
 153.6400      262
 153.6800      256
 153.7200      248
 153.7600      275
 153.8000      267
 153.8400      303
 153.8800      262
 153.9200      289
 153.9600      288
 154.0000      302
 154.0400      330
 154.0800      330
 154.1200      319
 154.1600      359
 154.2000      347
 154.2400      361
 154.2800      377
 154.3200      373
 154.3600      386
 154.4000      352
 154.4400      372
 154.4800      387
 154.5200      397
 154.5600      461
 154.6000      403
 154.6400      429
 154.6800      390
 154.7200      444
 154.7600      431
 154.8000      440
 154.8400      423
 154.8800      450
 154.9200      421
 154.9600      443
 155.0000      449
 155.0400      447
 155.0800      473
 155.1200      425
 155.1600      450
 155.2000      453
 155.2400      449
 155.2800      415
 155.3200      465
 155.3600      411
 155.4000      444
 155.4400      416
 155.4800      414
 155.5200      386
 155.5600      464
 155.6000      394
 155.6400      391
 155.6800      408
 155.7200      372
 155.7600      389
 155.8000      389
 155.8400      386
 155.8800      368
 155.9200      339
 155.9600      419
 156.0000      387
 156.0400      314
 156.0800      360
 156.1200      350
 156.1600      326
 156.2000      318
 156.2400      302
 156.2800      285
 156.3200      287
 156.3600      292
 156.4000      314
 156.4400      272
 156.4800      301
 156.5200      249
 156.5600      299
 156.6000      267
 156.6400      257
 156.6800      270
 156.7200      230
 156.7600      226
 156.8000      257
 156.8400      248
 156.8800      239
 156.9200      225
 156.9600      232
 157.0000      201
 157.0400      215
 157.0800      205
 157.1200      214
 157.1600      180
 157.2000      197
 157.2400      184
 157.2800      176
 157.3200      178
 157.3600      178
 157.4000      160
 157.4400      174
 157.4800      186
 157.5200      149
 157.5600      154
 157.6000      160
 157.6400      145
 157.6800      129
 157.7200      160
 157.7600      156
 157.8000      155
 157.8400      154
 157.8800      151
 157.9200      133
 157.9600      136
 158.0000      126
 158.0400      124
 158.0800      141
 158.1200      142
 158.1600      126
 158.2000      120
 158.2400      139
 158.2800      121
 158.3200      120
 158.3600       94
 158.4000      117
 158.4400      106
 158.4800      110
 158.5200      125
 158.5600      103
 158.6000      101
 158.6400      118
 158.6800      119
 158.7200      106
 158.7600      100
 158.8000       98
 158.8400      112
 158.8800       88
 158.9200       85
 158.9600      109
 159.0000      105
 159.0400      103
 159.0800       76
 159.1200       92
 159.1600       94
 159.2000      106
 159.2400       87
 159.2800      109
 159.3200       94
 159.3600       93
 159.4000       95
 159.4400       84
 159.4800       99
 159.5200       75
 159.5600       92
 159.6000       80
 159.6400       89
 159.6800       89
 159.7200       74
 159.7600      100
 159.8000       90
 159.8400       78
 159.8800       86
 159.9200       72
 159.9600       70
 160.0000       87