File: XRD_Tool/XRD_Tool/bin/Debug/SDD_sample_name_01234_Psi-30_20180602-101314.txt
 145.0000       24
 145.0400       39
 145.0800       42
 145.1200       34
 145.1600       34
 145.2000       41
 145.2400       34
 145.2800       36
 145.3200       40
 145.3600       44
 145.4000       28
 145.4400       36
 145.4800       32
 145.5200       51
 145.5600       39
 145.6000       40
 145.6400       27
 145.6800       37
 145.7200       38
 145.7600       36
 145.8000       48
 145.8400       38
 145.8800       40
 145.9200       44
 145.9600       30
 146.0000       42
 146.0400       31
 146.0800       48
 146.1200       45
 146.1600       32
 146.2000       54
 146.2400       27
 146.2800       50
 146.3200       43
 146.3600       37
 146.4000       42
 146.4400       40
 146.4800       38
 146.5200       25
 146.5600       27
 146.6000       45
 146.6400       28
 146.6800       40
 146.7200       34
 146.7600       35
 146.8000       40
 146.8400       22
 146.8800       38
 146.9200       37
 146.9600       42
 147.0000       37
 147.0400       33
 147.0800       44
 147.1200       39
 147.1600       40
 147.2000       41
 147.2400       46
 147.2800       37
 147.3200       40
 147.3600       38
 147.4000       48
 147.4400       37
 147.4800       33
 147.5200       45
 147.5600       31
 147.6000       37
 147.6400       50
 147.6800       37
 147.7200       41
 147.7600       42
 147.8000       47
 147.8400       37
 147.8800       40
 147.9200       43
 147.9600       33
 148.0000       37
 148.0400       41
 148.0800       49
 148.1200       39
 148.1600       39
 148.2000       38
 148.2400       41
 148.2800       35
 148.3200       54
 148.3600       31
 148.4000       44
 148.4400       35
 148.4800       48
 148.5200       37
 148.5600       43
 148.6000       27
 148.6400       43
 148.6800       39
 148.7200       49
 148.7600       48
 148.8000       42
 148.8400       47
 148.8800       48
 148.9200       40
 148.9600       44
 149.0000       40
 149.0400       35
 149.0800       45
 149.1200       44
 149.1600       48
 149.2000       44
 149.2400       51
 149.2800       41
 149.3200       50
 149.3600       33
 149.4000       51
 149.4400       36
 149.4800       46
 149.5200       44
 149.5600       50
 149.6000       43
 149.6400       57
 149.6800       52
 149.7200       51
 149.7600       49
 149.8000       37
 149.8400       35
 149.8800       49
 149.9200       36
 149.9600       53
 150.0000       42
 150.0400       51
 150.0800       41
 150.1200       42
 150.1600       61
 150.2000       53
 150.2400       46
 150.2800       51
 150.3200       50
 150.3600       53
 150.4000       40
 150.4400       52
 150.4800       59
 150.5200       59
 150.5600       52
 150.6000       48
 150.6400       48
 150.6800       63
 150.7200       51
 150.7600       57
 150.8000       51
 150.8400       59
 150.8800       46
 150.9200       83
 150.9600       54
 151.0000       63
 151.0400       48
 151.0800       61
 151.1200       73
 151.1600       55
 151.2000       65
 151.2400       60
 151.2800       66
 151.3200       68
 151.3600       55
 151.4000       69
 151.4400       72
 151.4800       59
 151.5200       82
 151.5600       63
 151.6000       83
 151.6400       65
 151.6800       65
 151.7200       91
 151.7600       84
 151.8000       79
 151.8400       67
 151.8800       86
 151.9200       90
 151.9600       90
 152.0000       87
 152.0400       91
 152.0800       97
 152.1200      100
 152.1600       96
 152.2000       99
 152.2400       96
 152.2800       86
 152.3200      109
 152.3600      115
 152.4000      108
 152.4400      106
 152.4800      105
 152.5200      130
 152.5600      118
 152.6000      117
 152.6400      115
 152.6800      103
 152.7200      127
 152.7600      141
 152.8000      150
 152.8400      131
 152.8800      140
 152.9200      138
 152.9600      136
 153.0000      140
 153.0400      175
 153.0800      185
 153.1200      188
 153.1600      161
 153.2000      178
 153.2400      176
 153.2800      189
 153.3200      199
 153.3600      185
 153.4000      211
 153.4400      220
 153.4800      201
 153.5200      201
 153.5600      236
 153.6000      205
 153.6400      236
 153.6800      239
 153.7200      257
 153.7600      254
 153.8000      289
 153.8400      245
 153.8800      266
 153.9200      320
 153.9600      280
 154.0000      322
 154.0400      331
 154.0800      309
 154.1200      321
 154.1600      341
 154.2000      354
 154.2400      343
 154.2800      361
 154.3200      350
 154.3600      340
 154.4000      388
 154.4400      415
 154.4800      354
 154.5200      366
 154.5600      407
 154.6000      386
 154.6400      399
 154.6800      388
 154.7200      405
 154.7600      415
 154.8000      459
 154.8400      433
 154.8800      387
 154.9200      415
 154.9600      479
 155.0000      419