File: XRD_Tool/XRD_Tool/bin/Debug/SDD_sample_name_01234_Psi-0_20180602-171537.txt
 150.0000      133
 150.0200      123
 150.0400      122
 150.0600      152
 150.0800      124
 150.1000      115
 150.1200      119
 150.1400      133
 150.1600      129
 150.1800      140
 150.2000      131
 150.2200      117
 150.2400      132
 150.2600      137
 150.2800      131
 150.3000      169
 150.3200      137
 150.3400      129
 150.3600      155
 150.3800      148
 150.4000      140
 150.4200      148
 150.4400      154
 150.4600      153
 150.4800      129
 150.5000      142
 150.5200      127
 150.5400      149
 150.5600      142
 150.5800      149
 150.6000      126
 150.6200      166
 150.6400      167
 150.6600      173
 150.6800      158
 150.7000      149
 150.7200      157
 150.7400      156
 150.7600      152
 150.7800      143
 150.8000      165
 150.8200      161
 150.8400      154
 150.8600      150
 150.8800      170
 150.9000      179
 150.9200      186
 150.9400      185
 150.9600      160
 150.9800      157
 151.0000      167
 151.0200      165
 151.0400      184
 151.0600      172
 151.0800      183
 151.1000      180
 151.1200      176
 151.1400      157
 151.1600      159
 151.1800      199
 151.2000      180
 151.2200      186
 151.2400      196
 151.2600      200
 151.2800      187
 151.3000      187
 151.3200      177
 151.3400      183
 151.3600      181
 151.3800      217
 151.4000      181
 151.4200      205
 151.4400      182
 151.4600      211
 151.4800      200
 151.5000      211
 151.5200      206
 151.5400      189
 151.5600      246
 151.5800      228
 151.6000      206
 151.6200      181
 151.6400      208
 151.6600      233
 151.6800      228
 151.7000      224
 151.7200      227
 151.7400      215
 151.7600      208
 151.7800      227
 151.8000      216
 151.8200      230
 151.8400      254
 151.8600      247
 151.8800      236
 151.9000      217
 151.9200      257
 151.9400      259
 151.9600      249
 151.9800      237
 152.0000      231
 152.0200      240
 152.0400      224
 152.0600      256
 152.0800      249
 152.1000      264
 152.1200      252
 152.1400      278
 152.1600      277
 152.1800      286
 152.2000      255
 152.2200      272
 152.2400      304
 152.2600      255
 152.2800      274
 152.3000      285
 152.3200      289
 152.3400      283
 152.3600      248
 152.3800      277
 152.4000      307
 152.4200      305
 152.4400      272
 152.4600      297
 152.4800      304
 152.5000      287
 152.5200      318
 152.5400      312
 152.5600      284
 152.5800      329
 152.6000      327
 152.6200      320
 152.6400      339
 152.6600      323
 152.6800      364
 152.7000      335
 152.7200      312
 152.7400      361
 152.7600      338
 152.7800      325
 152.8000      314
 152.8200      326
 152.8400      323
 152.8600      341
 152.8800      365
 152.9000      330
 152.9200      330
 152.9400      348
 152.9600      366
 152.9800      369
 153.0000      370
 153.0200      383
 153.0400      347
 153.0600      338
 153.0800      380
 153.1000      363
 153.1200      339
 153.1400      364
 153.1600      343
 153.1800      378
 153.2000      351
 153.2200      393
 153.2400      346
 153.2600      378
 153.2800      411
 153.3000      377
 153.3200      370
 153.3400      399
 153.3600      414
 153.3800      411
 153.4000      397
 153.4200      360
 153.4400      461
 153.4600      427
 153.4800      439
 153.5000      376
 153.5200      404
 153.5400      427
 153.5600      406
 153.5800      404
 153.6000      398
 153.6200      427
 153.6400      416
 153.6600      421
 153.6800      447
 153.7000      402
 153.7200      436
 153.7400      411
 153.7600      428
 153.7800      431
 153.8000      434
 153.8200      417
 153.8400      527
 153.8600      467
 153.8800      439
 153.9000      475
 153.9200      474
 153.9400      427
 153.9600      448
 153.9800      477
 154.0000      474
 154.0200      490
 154.0400      472
 154.0600      421
 154.0800      471
 154.1000      467
 154.1200      457
 154.1400      442
 154.1600      459
 154.1800      471
 154.2000      460
 154.2200      466
 154.2400      434
 154.2600      465
 154.2800      470
 154.3000      452
 154.3200      497
 154.3400      454
 154.3600      512
 154.3800      496
 154.4000      506
 154.4200      468
 154.4400      437
 154.4600      461
 154.4800      424
 154.5000      513
 154.5200      447
 154.5400      483
 154.5600      489
 154.5800      475
 154.6000      493
 154.6200      451
 154.6400      478
 154.6600      496
 154.6800      472
 154.7000      493
 154.7200      453
 154.7400      481
 154.7600      467
 154.7800      479
 154.8000      461
 154.8200      458
 154.8400      492
 154.8600      441
 154.8800      470
 154.9000      508
 154.9200      462
 154.9400      510
 154.9600      509
 154.9800      449
 155.0000      498