File: XRD_Tool/XRD_Tool/bin/Debug/SDD_sample_name_01234_Psi-45_20180602-101358.txt
 145.0000       42
 145.0400       39
 145.0800       37
 145.1200       31
 145.1600       29
 145.2000       36
 145.2400       44
 145.2800       26
 145.3200       46
 145.3600       36
 145.4000       37
 145.4400       42
 145.4800       32
 145.5200       41
 145.5600       32
 145.6000       36
 145.6400       35
 145.6800       36
 145.7200       41
 145.7600       36
 145.8000       39
 145.8400       25
 145.8800       36
 145.9200       41
 145.9600       41
 146.0000       33
 146.0400       42
 146.0800       43
 146.1200       38
 146.1600       38
 146.2000       45
 146.2400       45
 146.2800       34
 146.3200       33
 146.3600       39
 146.4000       34
 146.4400       50
 146.4800       47
 146.5200       36
 146.5600       35
 146.6000       39
 146.6400       47
 146.6800       37
 146.7200       33
 146.7600       33
 146.8000       33
 146.8400       37
 146.8800       43
 146.9200       40
 146.9600       41
 147.0000       45
 147.0400       48
 147.0800       32
 147.1200       42
 147.1600       29
 147.2000       31
 147.2400       41
 147.2800       49
 147.3200       30
 147.3600       42
 147.4000       43
 147.4400       38
 147.4800       35
 147.5200       39
 147.5600       33
 147.6000       39
 147.6400       53
 147.6800       30
 147.7200       41
 147.7600       37
 147.8000       40
 147.8400       42
 147.8800       43
 147.9200       39
 147.9600       30
 148.0000       32
 148.0400       42
 148.0800       37
 148.1200       39
 148.1600       27
 148.2000       36
 148.2400       46
 148.2800       48
 148.3200       35
 148.3600       39
 148.4000       33
 148.4400       29
 148.4800       44
 148.5200       35
 148.5600       42
 148.6000       38
 148.6400       42
 148.6800       32
 148.7200       46
 148.7600       53
 148.8000       38
 148.8400       44
 148.8800       41
 148.9200       39
 148.9600       49
 149.0000       51
 149.0400       49
 149.0800       40
 149.1200       40
 149.1600       46
 149.2000       48
 149.2400       36
 149.2800       68
 149.3200       47
 149.3600       50
 149.4000       34
 149.4400       40
 149.4800       42
 149.5200       49
 149.5600       50
 149.6000       34
 149.6400       51
 149.6800       59
 149.7200       44
 149.7600       51
 149.8000       40
 149.8400       54
 149.8800       45
 149.9200       50
 149.9600       47
 150.0000       32
 150.0400       43
 150.0800       53
 150.1200       39
 150.1600       55
 150.2000       49
 150.2400       68
 150.2800       47
 150.3200       45
 150.3600       54
 150.4000       52
 150.4400       55
 150.4800       50
 150.5200       44
 150.5600       40
 150.6000       51
 150.6400       46
 150.6800       39
 150.7200       57
 150.7600       47
 150.8000       60
 150.8400       55
 150.8800       49
 150.9200       52
 150.9600       50
 151.0000       51
 151.0400       70
 151.0800       58
 151.1200       68
 151.1600       54
 151.2000       51
 151.2400       68
 151.2800       51
 151.3200       61
 151.3600       73
 151.4000       67
 151.4400       70
 151.4800       71
 151.5200       52
 151.5600       65
 151.6000       71
 151.6400       60
 151.6800       81
 151.7200       71
 151.7600       63
 151.8000       65
 151.8400       81
 151.8800       61
 151.9200       79
 151.9600       66
 152.0000       81
 152.0400       75
 152.0800       69
 152.1200       99
 152.1600      100
 152.2000       97
 152.2400       96
 152.2800       86
 152.3200       75
 152.3600       72
 152.4000       93
 152.4400       90
 152.4800       90
 152.5200      102
 152.5600      123
 152.6000      109
 152.6400      107
 152.6800      106
 152.7200      122
 152.7600       95
 152.8000      108
 152.8400      109
 152.8800      116
 152.9200      136
 152.9600      119
 153.0000      120
 153.0400      140
 153.0800      137
 153.1200      133
 153.1600      144
 153.2000      141
 153.2400      131
 153.2800      152
 153.3200      110
 153.3600      163
 153.4000      161
 153.4400      167
 153.4800      187
 153.5200      183
 153.5600      200
 153.6000      179
 153.6400      201
 153.6800      198
 153.7200      196
 153.7600      224
 153.8000      210
 153.8400      228
 153.8800      235
 153.9200      235
 153.9600      249
 154.0000      241
 154.0400      288
 154.0800      288
 154.1200      246
 154.1600      278
 154.2000      277
 154.2400      293
 154.2800      282
 154.3200      279
 154.3600      321
 154.4000      335
 154.4400      316
 154.4800      363
 154.5200      345
 154.5600      347
 154.6000      347
 154.6400      357
 154.6800      406
 154.7200      369
 154.7600      395
 154.8000      368
 154.8400      379
 154.8800      348
 154.9200      371
 154.9600      379
 155.0000      383