File: XRD_Tool/XRD_Tool/bin/Debug/SDD_sample_name_001_Psi-0_20180528-074414.txt
 150.0000       63
 150.0400       65
 150.0800       57
 150.1200       65
 150.1600       71
 150.2000       74
 150.2400       61
 150.2800       70
 150.3200       72
 150.3600       75
 150.4000       69
 150.4400       69
 150.4800       63
 150.5200       74
 150.5600       76
 150.6000       64
 150.6400       59
 150.6800       78
 150.7200       74
 150.7600       80
 150.8000       69
 150.8400       83
 150.8800       76
 150.9200       81
 150.9600       85
 151.0000       83
 151.0400       64
 151.0800       75
 151.1200       95
 151.1600       86
 151.2000      106
 151.2400       82
 151.2800       82
 151.3200       90
 151.3600       94
 151.4000       83
 151.4400       92
 151.4800      100
 151.5200       86
 151.5600       87
 151.6000       89
 151.6400      106
 151.6800       95
 151.7200       88
 151.7600      119
 151.8000      107
 151.8400      113
 151.8800       96
 151.9200      115
 151.9600      128
 152.0000      124
 152.0400      131
 152.0800      123
 152.1200      118
 152.1600      114
 152.2000      110
 152.2400      130
 152.2800      135
 152.3200      135
 152.3600      125
 152.4000      140
 152.4400      148
 152.4800      147
 152.5200      150
 152.5600      148
 152.6000      156
 152.6400      170
 152.6800      168
 152.7200      170
 152.7600      202
 152.8000      161
 152.8400      183
 152.8800      198
 152.9200      173
 152.9600      214
 153.0000      214
 153.0400      233
 153.0800      220
 153.1200      208
 153.1600      231
 153.2000      243
 153.2400      234
 153.2800      248
 153.3200      285
 153.3600      273
 153.4000      274
 153.4400      286
 153.4800      263
 153.5200      315
 153.5600      299
 153.6000      298
 153.6400      324
 153.6800      332
 153.7200      325
 153.7600      346
 153.8000      375
 153.8400      398
 153.8800      374
 153.9200      390
 153.9600      394
 154.0000      394
 154.0400      415
 154.0800      435
 154.1200      430
 154.1600      451
 154.2000      425
 154.2400      451
 154.2800      462
 154.3200      493
 154.3600      463
 154.4000      435
 154.4400      479
 154.4800      479
 154.5200      487
 154.5600      465
 154.6000      521
 154.6400      491
 154.6800      480
 154.7200      469
 154.7600      485
 154.8000      453
 154.8400      486
 154.8800      515
 154.9200      528
 154.9600      456
 155.0000      479
 155.0400      467
 155.0800      429
 155.1200      444
 155.1600      485
 155.2000      482
 155.2400      451
 155.2800      433
 155.3200      420
 155.3600      415
 155.4000      446
 155.4400      441
 155.4800      424
 155.5200      428
 155.5600      427
 155.6000      429
 155.6400      411
 155.6800      379
 155.7200      379
 155.7600      375
 155.8000      398
 155.8400      321
 155.8800      353
 155.9200      346
 155.9600      333
 156.0000      318
 156.0400      308
 156.0800      323
 156.1200      309
 156.1600      289
 156.2000      298
 156.2400      294
 156.2800      276
 156.3200      285
 156.3600      283
 156.4000      231
 156.4400      244
 156.4800      222
 156.5200      267
 156.5600      263
 156.6000      227
 156.6400      221
 156.6800      241
 156.7200      233
 156.7600      241
 156.8000      218
 156.8400      183
 156.8800      192
 156.9200      185
 156.9600      192
 157.0000      194
 157.0400      216
 157.0800      179
 157.1200      172
 157.1600      167
 157.2000      183
 157.2400      158
 157.2800      153
 157.3200      179
 157.3600      149
 157.4000      125
 157.4400      139
 157.4800      157
 157.5200      121
 157.5600      149
 157.6000      136
 157.6400      125
 157.6800      136
 157.7200      120
 157.7600      115
 157.8000      110
 157.8400      109
 157.8800      149
 157.9200      138
 157.9600      122
 158.0000      126
 158.0400      138
 158.0800      112
 158.1200       99
 158.1600      110
 158.2000      118
 158.2400      117
 158.2800      103
 158.3200      118
 158.3600       97
 158.4000      125
 158.4400      101
 158.4800       97
 158.5200       99
 158.5600      104
 158.6000       98
 158.6400       91
 158.6800       92
 158.7200       75
 158.7600       98
 158.8000       95
 158.8400       95
 158.8800       80
 158.9200       93
 158.9600       98
 159.0000       78
 159.0400       94
 159.0800       78
 159.1200       82
 159.1600       96
 159.2000       81
 159.2400       92
 159.2800       85
 159.3200       67
 159.3600       80
 159.4000       88
 159.4400       78
 159.4800       56
 159.5200       83
 159.5600       80
 159.6000       87
 159.6400       91
 159.6800       80
 159.7200       65
 159.7600       92
 159.8000       69
 159.8400       80
 159.8800       67
 159.9200       61
 159.9600       62
 160.0000       84