File: XRD_Tool/XRD_Tool/bin/Debug/SDD_sample_name_01234_Psi-15_20180602-131443.txt
 145.0000       34
 145.0400       43
 145.0800       38
 145.1200       29
 145.1600       31
 145.2000       40
 145.2400       43
 145.2800       39
 145.3200       41
 145.3600       39
 145.4000       48
 145.4400       40
 145.4800       33
 145.5200       39
 145.5600       32
 145.6000       46
 145.6400       32
 145.6800       36
 145.7200       41
 145.7600       42
 145.8000       36
 145.8400       41
 145.8800       36
 145.9200       42
 145.9600       39
 146.0000       39
 146.0400       50
 146.0800       51
 146.1200       31
 146.1600       43
 146.2000       34
 146.2400       37
 146.2800       37
 146.3200       42
 146.3600       30
 146.4000       34
 146.4400       49
 146.4800       34
 146.5200       35
 146.5600       40
 146.6000       44
 146.6400       36
 146.6800       48
 146.7200       45
 146.7600       40
 146.8000       32
 146.8400       47
 146.8800       39
 146.9200       33
 146.9600       39
 147.0000       46
 147.0400       45
 147.0800       40
 147.1200       50
 147.1600       48
 147.2000       43
 147.2400       46
 147.2800       46
 147.3200       47
 147.3600       34
 147.4000       50
 147.4400       55
 147.4800       54
 147.5200       39
 147.5600       39
 147.6000       41
 147.6400       29
 147.6800       33
 147.7200       47
 147.7600       51
 147.8000       40
 147.8400       30
 147.8800       37
 147.9200       43
 147.9600       44
 148.0000       41
 148.0400       42
 148.0800       45
 148.1200       41
 148.1600       39
 148.2000       50
 148.2400       45
 148.2800       36
 148.3200       46
 148.3600       49
 148.4000       46
 148.4400       44
 148.4800       48
 148.5200       34
 148.5600       42
 148.6000       45
 148.6400       36
 148.6800       48
 148.7200       38
 148.7600       50
 148.8000       65
 148.8400       38
 148.8800       44
 148.9200       44
 148.9600       43
 149.0000       44
 149.0400       39
 149.0800       62
 149.1200       40
 149.1600       45
 149.2000       48
 149.2400       56
 149.2800       42
 149.3200       53
 149.3600       60
 149.4000       40
 149.4400       46
 149.4800       39
 149.5200       48
 149.5600       45
 149.6000       44
 149.6400       37
 149.6800       51
 149.7200       52
 149.7600       59
 149.8000       43
 149.8400       43
 149.8800       59
 149.9200       64
 149.9600       43
 150.0000       55
 150.0400       48
 150.0800       63
 150.1200       50
 150.1600       57
 150.2000       67
 150.2400       56
 150.2800       56
 150.3200       50
 150.3600       54
 150.4000       55
 150.4400       50
 150.4800       70
 150.5200       63
 150.5600       62
 150.6000       62
 150.6400       76
 150.6800       63
 150.7200       76
 150.7600       67
 150.8000       53
 150.8400       59
 150.8800       68
 150.9200       72
 150.9600       59
 151.0000       74
 151.0400       67
 151.0800       66
 151.1200       78
 151.1600       84
 151.2000       73
 151.2400       69
 151.2800       78
 151.3200       96
 151.3600       88
 151.4000       82
 151.4400       77
 151.4800       63
 151.5200       77
 151.5600       73
 151.6000      104
 151.6400       76
 151.6800       88
 151.7200       94
 151.7600       84
 151.8000       93
 151.8400       90
 151.8800       97
 151.9200       96
 151.9600      101
 152.0000       96
 152.0400       93
 152.0800      111
 152.1200      126
 152.1600      112
 152.2000      109
 152.2400      103
 152.2800      127
 152.3200      127
 152.3600      136
 152.4000      133
 152.4400      140
 152.4800      149
 152.5200      131
 152.5600      141
 152.6000      146
 152.6400      139
 152.6800      165
 152.7200      148
 152.7600      151
 152.8000      171
 152.8400      160
 152.8800      164
 152.9200      194
 152.9600      168
 153.0000      188
 153.0400      196
 153.0800      206
 153.1200      209
 153.1600      236
 153.1800