File: XRD_Tool/XRD_Tool/bin/Debug/SDD_sample_name_001_Psi-0_20180528-025055.txt
 150.0000       64
 150.0400       50
 150.0800       66
 150.1200       59
 150.1600       62
 150.2000       55
 150.2400       78
 150.2800       60
 150.3200       73
 150.3600       73
 150.4000       65
 150.4400       62
 150.4800       74
 150.5200       63
 150.5600       58
 150.6000       76
 150.6400       55
 150.6800       72
 150.7200       68
 150.7600       62
 150.8000       64
 150.8400       75
 150.8800       77
 150.9200       80
 150.9600       84
 151.0000       87
 151.0400       67
 151.0800       76
 151.1200       90
 151.1600       90
 151.2000       75
 151.2400       95
 151.2800       77
 151.3200       96
 151.3600       82
 151.4000       98
 151.4400       92
 151.4800       84
 151.5200       86
 151.5600       96
 151.6000       96
 151.6400      106
 151.6800       80
 151.7200       93
 151.7600      110
 151.8000      116
 151.8400       94
 151.8800      101
 151.9200      114
 151.9600      127
 152.0000      122
 152.0400      105
 152.0800      129
 152.1200      120
 152.1600      108
 152.2000      103
 152.2400      127
 152.2800      133
 152.3200      137
 152.3600      126
 152.4000      139
 152.4400      137
 152.4800      165
 152.5200      139
 152.5600      153
 152.6000      140
 152.6400      153
 152.6800      167
 152.7200      156
 152.7600      187
 152.8000      173
 152.8400      174
 152.8800      162
 152.9200      182
 152.9600      194
 153.0000      189
 153.0400      201
 153.0800      225
 153.1200      239
 153.1600      250
 153.2000      234
 153.2400      208
 153.2800      250
 153.3200      247
 153.3600      250
 153.4000      283
 153.4400      274
 153.4800      282
 153.5200      308
 153.5600      285
 153.6000      314
 153.6400      311
 153.6800      327
 153.7200      307
 153.7600      336
 153.8000      340
 153.8400      346
 153.8800      379
 153.9200      363
 153.9600      412
 154.0000      372
 154.0400      382
 154.0800      423
 154.1200      407
 154.1600      403
 154.2000      424
 154.2400      404
 154.2800      434
 154.3200      436
 154.3600      465
 154.4000      420
 154.4400      441
 154.4800      437
 154.5200      463
 154.5600      437
 154.6000      478
 154.6400      477
 154.6800      481
 154.7200      477
 154.7600      476
 154.8000      475
 154.8400      492
 154.8800      453
 154.9200      476
 154.9600      497
 155.0000      473
 155.0400      455
 155.0800      421
 155.1200      451
 155.1600      423
 155.2000      477
 155.2400      458
 155.2800      434
 155.3200      445
 155.3600      428
 155.4000      426
 155.4400      416
 155.4800      402
 155.5200      416
 155.5600      382
 155.6000      394
 155.6400      379
 155.6800      361
 155.7200      396
 155.7600      358
 155.8000      340
 155.8400      353
 155.8800      334
 155.9200      350
 155.9600      296
 156.0000      292
 156.0400      311
 156.0800      314
 156.1200      305
 156.1600      294
 156.2000      270
 156.2400      278
 156.2800      278
 156.3200      269
 156.3600      248
 156.4000      261
 156.4400      250
 156.4800      257
 156.5200      238
 156.5600      261
 156.6000      234
 156.6400      222
 156.6800      225
 156.7200      215
 156.7600      222
 156.8000      222
 156.8400      192
 156.8800      200
 156.9200      177
 156.9600      194
 157.0000      171
 157.0400      194
 157.0800      186
 157.1200      180
 157.1600      185
 157.2000      169
 157.2400      154
 157.2800      154
 157.3200      155
 157.3600      153
 157.4000      160
 157.4400      173
 157.4800      159
 157.5200      156
 157.5600      134
 157.6000      154
 157.6400      132
 157.6800      123
 157.7200      179
 157.7600      152
 157.8000      114
 157.8400      129
 157.8800      126
 157.9200      136
 157.9600      125
 158.0000      110
 158.0400      119
 158.0800      113
 158.1200       96
 158.1600      124
 158.2000      111
 158.2400      102
 158.2800       99
 158.3200      123
 158.3600      100
 158.4000      122
 158.4400      115
 158.4800       97
 158.5200      102
 158.5600      109
 158.6000       83
 158.6400       81
 158.6800       70
 158.7200       85
 158.7600       95
 158.8000       92
 158.8400       85
 158.8800       90
 158.9200       87
 158.9600       85
 159.0000       97
 159.0400       93
 159.0800       96
 159.1200       77
 159.1600       96
 159.2000       96
 159.2400       57
 159.2800       84
 159.3200       94
 159.3600       99
 159.4000       83
 159.4400       91
 159.4800       76
 159.5200       69
 159.5600       76
 159.6000       83
 159.6400       78
 159.6800       83
 159.7200       94
 159.7600       77
 159.8000       93
 159.8400       73
 159.8800       58
 159.9200       67
 159.9600       67
 160.0000       69