File: XRD_Tool/XRD_Tool/bin/Debug/SDD_sample_name_001_Psi-0_20180528-025750.txt
 145.0000       47
 145.0400       49
 145.0800       51
 145.1200       51
 145.1600       60
 145.2000       51
 145.2400       62
 145.2800       45
 145.3200       46
 145.3600       35
 145.4000       53
 145.4400       43
 145.4800       41
 145.5200       54
 145.5600       53
 145.6000       48
 145.6400       65
 145.6800       46
 145.7200       53
 145.7600       50
 145.8000       49
 145.8400       53
 145.8800       48
 145.9200       43
 145.9600       50
 146.0000       62
 146.0400       53
 146.0800       52
 146.1200       63
 146.1600       52
 146.2000       53
 146.2400       43
 146.2800       48
 146.3200       58
 146.3600       53
 146.4000       60
 146.4400       50
 146.4800       57
 146.5200       49
 146.5600       55
 146.6000       54
 146.6400       54
 146.6800       55
 146.7200       53
 146.7600       53
 146.8000       66
 146.8400       45
 146.8800       51
 146.9200       59
 146.9600       51
 147.0000       59
 147.0400       51
 147.0800       63
 147.1200       53
 147.1600       49
 147.2000       48
 147.2400       51
 147.2800       52
 147.3200       58
 147.3600       44
 147.4000       56
 147.4400       49
 147.4800       55
 147.5200       56
 147.5600       52
 147.6000       45
 147.6400       53
 147.6800       53
 147.7200       57
 147.7600       51
 147.8000       55
 147.8400       64
 147.8800       50
 147.9200       42
 147.9600       50
 148.0000       65
 148.0400       52
 148.0800       53
 148.1200       68
 148.1600       46
 148.2000       77
 148.2400       50
 148.2800       61
 148.3200       56
 148.3600       55
 148.4000       69
 148.4400       59
 148.4800       51
 148.5200       53
 148.5600       72
 148.6000       59
 148.6400       57
 148.6800       68
 148.7200       74
 148.7600       68
 148.8000       70
 148.8400       74
 148.8800       58
 148.9200       61
 148.9600       68
 149.0000       75
 149.0400       67
 149.0800       59
 149.1200       56
 149.1600       54
 149.2000       65
 149.2400       63
 149.2800       60
 149.3200       55
 149.3600       57
 149.4000       52
 149.4400       67
 149.4800       67
 149.5200       58
 149.5600       68
 149.6000       54
 149.6400       70
 149.6800       81
 149.7200       58
 149.7600       67
 149.8000       72
 149.8400       60
 149.8800       67
 149.9200       60
 149.9600       71
 150.0000       76
 150.0400       62
 150.0800       63
 150.1200       69
 150.1600       68
 150.2000       64
 150.2400       72
 150.2800       76
 150.3200       64
 150.3600       83
 150.4000       69
 150.4400       80
 150.4800       83
 150.5200       71
 150.5600       60
 150.6000       69
 150.6400       83
 150.6800       65
 150.7200       72
 150.7600       85
 150.8000       77
 150.8400       72
 150.8800       69
 150.9200       83
 150.9600       79
 151.0000       87
 151.0400       80
 151.0800       81
 151.1200       84
 151.1600       98
 151.2000       87
 151.2400       97
 151.2800       76
 151.3200       89
 151.3600       91
 151.4000      101
 151.4400       99
 151.4800      106
 151.5200       87
 151.5600       99
 151.6000       91
 151.6400      101
 151.6800      103
 151.7200      106
 151.7600      108
 151.8000      104
 151.8400      109
 151.8800      109
 151.9200      109
 151.9600      120
 152.0000      142
 152.0400      125
 152.0800      141
 152.1200      125
 152.1600      133
 152.2000      111
 152.2400      118
 152.2800      118
 152.3200      133
 152.3600      137
 152.4000      148
 152.4400      161
 152.4800      152
 152.5200      142
 152.5600      148
 152.6000      159
 152.6400      163
 152.6800      160
 152.7200      168
 152.7600      180
 152.8000      165
 152.8400      195
 152.8800      186
 152.9200      201
 152.9600      190
 153.0000      196
 153.0400      207
 153.0800      208
 153.1200      254
 153.1600      231
 153.2000      240
 153.2400      258
 153.2800      225
 153.3200      233
 153.3600      267
 153.4000      272
 153.4400      292
 153.4800      274
 153.5200      312
 153.5600      305
 153.6000      320
 153.6400      327
 153.6800      355
 153.7200      341
 153.7600      380
 153.8000      352
 153.8400      336
 153.8800      371
 153.9200      410
 153.9600      364
 154.0000      393
 154.0400      416
 154.0800      409
 154.1200      410
 154.1600      389
 154.2000      432
 154.2400      456
 154.2800      477
 154.3200      456
 154.3600      407
 154.4000      481
 154.4400      458
 154.4800      446
 154.5200      502
 154.5600      445
 154.6000      513
 154.6400      474
 154.6800      481
 154.7200      482
 154.7600      495
 154.8000      441
 154.8400      446
 154.8800      482
 154.9200      499
 154.9600      502
 155.0000      522