File: XRD_Tool/XRD_Tool/bin/Debug/SDD_sample_name_01234_Psi-15_20180602-173846.txt
 150.0000      111
 150.0200       97
 150.0400      106
 150.0600      141
 150.0800      117
 150.1000      120
 150.1200      124
 150.1400      121
 150.1600      128
 150.1800      114
 150.2000      131
 150.2200      128
 150.2400      109
 150.2600      122
 150.2800      128
 150.3000      125
 150.3200      122
 150.3400      130
 150.3600      129
 150.3800      141
 150.4000      127
 150.4200      124
 150.4400      132
 150.4600      137
 150.4800      136
 150.5000      128
 150.5200      140
 150.5400      176
 150.5600      145
 150.5800      147
 150.6000      149
 150.6200      142
 150.6400      146
 150.6600      127
 150.6800      145
 150.7000      150
 150.7200      141
 150.7400      150
 150.7600      153
 150.7800      163
 150.8000      150
 150.8200      137
 150.8400      149
 150.8600      169
 150.8800      158
 150.9000      167
 150.9200      149
 150.9400      158
 150.9600      121
 150.9800      163
 151.0000      164
 151.0200      171
 151.0400      144
 151.0600      147
 151.0800      154
 151.1000      158
 151.1200      166
 151.1400      176
 151.1600      171
 151.1800      170
 151.2000      177
 151.2200      180
 151.2400      199
 151.2600      188
 151.2800      190
 151.3000      185
 151.3200      170
 151.3400      182
 151.3600      204
 151.3800      184
 151.4000      171
 151.4200      166
 151.4400      176
 151.4600      189
 151.4800      197
 151.5000      180
 151.5200      178
 151.5400      218
 151.5600      200
 151.5800      199
 151.6000      216
 151.6200      171
 151.6400      196
 151.6600      203
 151.6800      219
 151.7000      221
 151.7200      227
 151.7400      233
 151.7600      211
 151.7800      223
 151.8000      229
 151.8200      221
 151.8400      224
 151.8600      238
 151.8800      209
 151.9000      217
 151.9200      231
 151.9400      216
 151.9600      244
 151.9800      239
 152.0000      210
 152.0200      227
 152.0400      239
 152.0600      218
 152.0800      265
 152.1000      207
 152.1200      251
 152.1400      230
 152.1600      235
 152.1800      247
 152.2000      248
 152.2200      245
 152.2400      257
 152.2600      259
 152.2800      244
 152.3000      267
 152.3200      257
 152.3400      268
 152.3600      231
 152.3800      282
 152.4000      279
 152.4200      238
 152.4400      284
 152.4600      260
 152.4800      306
 152.5000      278
 152.5200      281
 152.5400      258
 152.5600      282
 152.5800      287
 152.6000      307
 152.6200      312
 152.6400      294
 152.6600      320
 152.6800      309
 152.7000      279
 152.7200      306
 152.7400      299
 152.7600      287
 152.7800      331
 152.8000      306
 152.8200      312
 152.8400      316
 152.8600      307
 152.8800      302
 152.9000      299
 152.9200      287
 152.9400      266
 152.9600      313
 152.9800      353
 153.0000      342
 153.0200      318
 153.0400      302
 153.0600      325
 153.0800      373
 153.1000      350
 153.1200      372
 153.1400      334
 153.1600      339
 153.1800      356
 153.2000      347
 153.2200      351
 153.2400      363
 153.2600      315
 153.2800      337
 153.3000      335
 153.3200      359
 153.3400      381
 153.3600      328
 153.3800      355
 153.4000      363
 153.4200      406
 153.4400      373
 153.4600      370
 153.4800      380
 153.5000      364
 153.5200      389
 153.5400      399
 153.5600      414
 153.5800      393
 153.6000      387
 153.6200      401
 153.6400      389
 153.6600      440
 153.6800      391
 153.7000      415
 153.7200      405
 153.7400      436
 153.7600      439
 153.7800      399
 153.8000      382
 153.8200      405
 153.8400      434
 153.8600      431
 153.8800      397
 153.9000      396
 153.9200      410
 153.9400      393
 153.9600      410
 153.9800      408
 154.0000      413
 154.0200      431
 154.0400      404
 154.0600      436
 154.0800      445
 154.1000      466
 154.1200      437
 154.1400      421
 154.1600      435
 154.1800      418
 154.2000      394
 154.2200      470
 154.2400      456
 154.2600      475
 154.2800      485
 154.3000      399
 154.3200      465
 154.3400      430
 154.3600      436
 154.3800      439
 154.4000      449
 154.4200      470
 154.4400      460
 154.4600      445
 154.4800      453
 154.5000      486
 154.5200      429
 154.5400      442
 154.5600      483
 154.5800      468
 154.6000      451
 154.6200      455
 154.6400      476
 154.6600      496
 154.6800      442
 154.7000      434
 154.7200      396
 154.7400      451
 154.7600      496
 154.7800      419
 154.8000      503
 154.8200      471
 154.8400      456
 154.8600      459
 154.8800      481
 154.9000      499
 154.9200      417
 154.9400      469
 154.9600      468
 154.9800      494
 155.0000      424