File: XRD_Tool/XRD_Tool/bin/Debug/SDD_sample_name_001_Psi-0_20180528-050354.txt
 150.0000       30
 150.0400       23
 150.0800       42
 150.1200       32
 150.1600       30
 150.2000       28
 150.2400       34
 150.2800       28
 150.3200       35
 150.3600       37
 150.4000       38
 150.4400       30
 150.4800       31
 150.5200       35
 150.5600       43
 150.6000       40
 150.6400       44
 150.6800       41
 150.7200       39
 150.7600       42
 150.8000       35
 150.8400       46
 150.8800       40
 150.9200       39
 150.9600       41
 151.0000       42
 151.0400       53
 151.0800       35
 151.1200       46
 151.1600       44
 151.2000       55
 151.2400       53
 151.2800       44
 151.3200       55
 151.3600       64
 151.4000       63
 151.4400       49
 151.4800       61
 151.5200       63
 151.5600       67
 151.6000       60
 151.6400       64
 151.6800       80
 151.7200       66
 151.7600       76
 151.8000       65
 151.8400       75
 151.8800       77
 151.9200       67
 151.9600       82
 152.0000       76
 152.0400       71
 152.0800       93
 152.1200      101
 152.1600       90
 152.2000       93
 152.2400       83
 152.2800       89
 152.3200      102
 152.3600       96
 152.4000       97
 152.4400      116
 152.4800      100
 152.5200      102
 152.5600      104
 152.6000      119
 152.6400      124
 152.6800      129
 152.7200      122
 152.7600      136
 152.8000      129
 152.8400      115
 152.8800      155
 152.9200      145
 152.9600      139
 153.0000      161
 153.0400      170
 153.0800      152
 153.1200      166
 153.1600      180
 153.2000      166
 153.2400      199
 153.2800      191
 153.3200      160
 153.3600      212
 153.4000      196
 153.4400      220
 153.4800      197
 153.5200      220
 153.5600      220
 153.6000      229
 153.6400      255
 153.6800      264
 153.7200      275
 153.7600      257
 153.8000      269
 153.8400      280
 153.8800      303
 153.9200      275
 153.9600      293
 154.0000      312
 154.0400      307
 154.0800      322
 154.1200      321
 154.1600      316
 154.2000      347
 154.2400      400
 154.2800      347
 154.3200      353
 154.3600      313
 154.4000      380
 154.4400      381
 154.4800      391
 154.5200      386
 154.5600      344
 154.6000      372
 154.6400      362
 154.6800      372
 154.7200      399
 154.7600      400
 154.8000      384
 154.8400      355
 154.8800      378
 154.9200      367
 154.9600      400
 155.0000      386
 155.0400      371
 155.0800      358
 155.1200      379
 155.1600      352
 155.2000      358
 155.2400      373
 155.2800      383
 155.3200      336
 155.3600      383
 155.4000      304
 155.4400      310
 155.4800      358
 155.5200      327
 155.5600      314
 155.6000      292
 155.6400      296
 155.6800      328
 155.7200      304
 155.7600      301
 155.8000      306
 155.8400      281
 155.8800      266
 155.9200      303
 155.9600      283
 156.0000      265
 156.0400      286
 156.0800      249
 156.1200      234
 156.1600      255
 156.2000      272
 156.2400      242
 156.2800      229
 156.3200      211
 156.3600      225
 156.4000      230
 156.4400      212
 156.4800      196
 156.5200      213
 156.5600      186
 156.6000      197
 156.6400      211
 156.6800      196
 156.7200      173
 156.7600      205
 156.8000      156
 156.8400      175
 156.8800      175
 156.9200      174
 156.9600      159
 157.0000      174
 157.0400      142
 157.0800      154
 157.1200      139
 157.1600      148
 157.2000      156
 157.2400      135
 157.2800      132
 157.3200      107
 157.3600      143
 157.4000      147
 157.4400      125
 157.4800      107
 157.5200      112
 157.5600      120
 157.6000      134
 157.6400      119
 157.6800      118
 157.7200      100
 157.7600      113
 157.8000      116
 157.8400      103
 157.8800      119
 157.9200      126
 157.9600       92
 158.0000      107
 158.0400       97
 158.0800      108
 158.1200       97
 158.1600       91
 158.2000       90
 158.2400       91
 158.2800      110
 158.3200      101
 158.3600       97
 158.4000       79
 158.4400       96
 158.4800       97
 158.5200       83
 158.5600       78
 158.6000       83
 158.6400       92
 158.6800       76
 158.7200       89
 158.7600       85
 158.8000       82
 158.8400       80
 158.8800       93
 158.9200       79
 158.9600      105
 159.0000       72
 159.0400       77
 159.0800       81
 159.1200       74
 159.1600       73
 159.2000       90
 159.2400       70
 159.2800       81
 159.3200       81
 159.3600       72
 159.4000       71
 159.4400       83
 159.4800       87
 159.5200       76
 159.5600       51
 159.6000       70
 159.6400       71
 159.6800       62
 159.7200       74
 159.7600       69
 159.8000       90
 159.8400       70
 159.8800       67
 159.9200       74
 159.9600       71
 160.0000       76