File: XRD_Tool/XRD_Tool/bin/Debug/SDD_sample_name_01234_Psi-30_20180527-124048.txt
 147.5000       59
 147.5200       49
 147.5400       46
 147.5600       55
 147.5800       54
 147.6000       35
 147.6200       56
 147.6400       55
 147.6600       49
 147.6800       55
 147.7000       55
 147.7200       64
 147.7400       58
 147.7600       54
 147.7800       54
 147.8000       62
 147.8200       54
 147.8400       42
 147.8600       56
 147.8800       62
 147.9000       44
 147.9200       59
 147.9400       56
 147.9600       50
 147.9800       63
 148.0000       51
 148.0200       52
 148.0400       43
 148.0600       58
 148.0800       52
 148.1000       60
 148.1200       65
 148.1400       54
 148.1600       45
 148.1800       53
 148.2000       64
 148.2200       57
 148.2400       61
 148.2600       53
 148.2800       54
 148.3000       52
 148.3200       56
 148.3400       59
 148.3600       58
 148.3800       52
 148.4000       53
 148.4200       52
 148.4400       55
 148.4600       62
 148.4800       67
 148.5000       68
 148.5200       45
 148.5400       55
 148.5600       62
 148.5800       51
 148.6000       58
 148.6200       59
 148.6400       63
 148.6600       42
 148.6800       45
 148.7000       57
 148.7200       67
 148.7400       44
 148.7600       39
 148.7800       51
 148.8000       60
 148.8200       49
 148.8400       57
 148.8600       52
 148.8800       50
 148.9000       58
 148.9200       73
 148.9400       55
 148.9600       45
 148.9800       58
 149.0000       75
 149.0200       60
 149.0400       45
 149.0600       55
 149.0800       57
 149.1000       70
 149.1200       62
 149.1400       64
 149.1600       54
 149.1800       57
 149.2000       61
 149.2200       61
 149.2400       59
 149.2600       66
 149.2800       52
 149.3000       54
 149.3200       67
 149.3400       38
 149.3600       65
 149.3800       44
 149.4000       66
 149.4200       55
 149.4400       57
 149.4600       67
 149.4800       75
 149.5000       52
 149.5200       61
 149.5400       60
 149.5600       64
 149.5800       69
 149.6000       65
 149.6200       61
 149.6400       61
 149.6600       72
 149.6800       67
 149.7000       83
 149.7200       62
 149.7400       58
 149.7600       47
 149.7800       53
 149.8000       70
 149.8200       60
 149.8400       53
 149.8600       60
 149.8800       60
 149.9000       62
 149.9200       47
 149.9400       67
 149.9600       59
 149.9800       49
 150.0000       54
 150.0200       56
 150.0400       63
 150.0600       67
 150.0800       59
 150.1000       57
 150.1200       60
 150.1400       59
 150.1600       66
 150.1800       56
 150.2000       53
 150.2200       56
 150.2400       58
 150.2600       69
 150.2800       73
 150.3000       58
 150.3200       75
 150.3400       62
 150.3600       64
 150.3800       81
 150.4000       82
 150.4200       67
 150.4400       56
 150.4600       48
 150.4800       65
 150.5000       67
 150.5200       59
 150.5400       67
 150.5600       62
 150.5800       68
 150.6000       62
 150.6200       53
 150.6400       69
 150.6600       57
 150.6800       64
 150.7000       61
 150.7200       68
 150.7400       77
 150.7600       82
 150.7800       94
 150.8000       71
 150.8200       70
 150.8400       75
 150.8600       80
 150.8800       74
 150.9000       71
 150.9200       80
 150.9400       59
 150.9600       70
 150.9800       61
 151.0000       75
 151.0200       75
 151.0400       88
 151.0600       79
 151.0800       77
 151.1000       84
 151.1200       73
 151.1400       70
 151.1600       78
 151.1800       83
 151.2000       68
 151.2200       74
 151.2400       79
 151.2600       79
 151.2800       75
 151.3000       74
 151.3200       84
 151.3400       77
 151.3600       85
 151.3800       89
 151.4000       66
 151.4200       86
 151.4400       85
 151.4600       78
 151.4800       83
 151.5000      101
 151.5200       82
 151.5400       62
 151.5600       89
 151.5800       92
 151.6000       81
 151.6200       75
 151.6400       78
 151.6600      102
 151.6800       98
 151.7000       86
 151.7200       78
 151.7400       94
 151.7600       82
 151.7800       96
 151.8000       80
 151.8200       90
 151.8400       97
 151.8600       90
 151.8800      111
 151.9000       98
 151.9200       89
 151.9400       95
 151.9600       98
 151.9800       96
 152.0000       79
 152.0200       92
 152.0400      111
 152.0600       86
 152.0800       90
 152.1000      112
 152.1200      116
 152.1400       91
 152.1600       96
 152.1800      112
 152.2000      109
 152.2200      122
 152.2400      109
 152.2600      110
 152.2800      127
 152.3000      115
 152.3200      115
 152.3400      103
 152.3600      108
 152.3800      109
 152.4000      119
 152.4200      121
 152.4400      134
 152.4600      110
 152.4800      133
 152.5000      137