File: XRD_Tool/XRD_Tool/bin/Debug/SDD_sample_name_01234_Psi-0_20180602-105613.txt
 145.0000       45
 145.0400       38
 145.0800       37
 145.1200       44
 145.1600       32
 145.2000       34
 145.2400       35
 145.2800       29
 145.3200       29
 145.3600       44
 145.4000       47
 145.4400       37
 145.4800       44
 145.5200       43
 145.5600       38
 145.6000       46
 145.6400       41
 145.6800       24
 145.7200       44
 145.7600       39
 145.8000       33
 145.8400       47
 145.8800       47
 145.9200       49
 145.9600       39
 146.0000       36
 146.0400       37
 146.0800       36
 146.1200       35
 146.1600       40
 146.2000       36
 146.2400       38
 146.2800       29
 146.3200       36
 146.3600       34
 146.4000       44
 146.4400       35
 146.4800       39
 146.5200       48
 146.5600       57
 146.6000       41
 146.6400       36
 146.6800       43
 146.7200       45
 146.7600       31
 146.8000       33
 146.8400       40
 146.8800       30
 146.9200       43
 146.9600       36
 147.0000       35
 147.0400       36
 147.0800       43
 147.1200       45
 147.1600       24
 147.2000       38
 147.2400       33
 147.2800       53
 147.3200       46
 147.3600       37
 147.4000       36
 147.4400       42
 147.4800       34
 147.5200       27
 147.5600       24
 147.6000       46
 147.6400       41
 147.6800       42
 147.7200       39
 147.7600       45
 147.8000       37
 147.8400       38
 147.8800       33
 147.9200       41
 147.9600       44
 148.0000       29
 148.0400       35
 148.0800       50
 148.1200       50
 148.1600       48
 148.2000       54
 148.2400       48
 148.2800       45
 148.3200       42
 148.3600       49
 148.4000       45
 148.4400       36
 148.4800       43
 148.5200       37
 148.5600       42
 148.6000       52
 148.6400       35
 148.6800       55
 148.7200       57
 148.7600       50
 148.8000       40
 148.8400       40
 148.8800       34
 148.9200       52
 148.9600       49
 149.0000       54
 149.0400       40
 149.0800       55
 149.1200       48
 149.1600       54
 149.2000       47
 149.2400       35
 149.2800       53
 149.3200       56
 149.3600       44
 149.4000       44
 149.4400       47
 149.4800       48
 149.5200       55
 149.5600       64
 149.6000       48
 149.6400       68
 149.6800       56
 149.7200       68
 149.7600       42
 149.8000       59
 149.8400       50
 149.8800       45
 149.9200       54
 149.9600       53
 150.0000       53
 150.0400       52
 150.0800       59
 150.1200       59
 150.1600       54
 150.2000       49
 150.2400       58
 150.2800       50
 150.3200       46
 150.3600       52
 150.4000       58
 150.4400       69
 150.4800       53
 150.5200       54
 150.5600       68
 150.6000       67
 150.6400       71
 150.6800       65
 150.7200       66
 150.7600       61
 150.8000       57
 150.8400       65
 150.8800       70
 150.9200       87
 150.9600       65
 151.0000       68
 151.0400       80
 151.0800       72
 151.1200       68
 151.1600       75
 151.2000       79
 151.2400       61
 151.2800       70
 151.3200       79
 151.3600       91
 151.4000       90
 151.4400       85
 151.4800       74
 151.5200       97
 151.5600       79
 151.6000       87
 151.6400      101
 151.6800       95
 151.7200       93
 151.7600      103
 151.8000       97
 151.8400      105
 151.8800      101
 151.9200       92
 151.9600       98
 152.0000      112
 152.0400      107
 152.0800       96
 152.1200      121
 152.1600      116
 152.2000      118
 152.2400      141
 152.2800      126
 152.3200      126
 152.3600      136
 152.4000      146
 152.4400      131
 152.4800      134
 152.5200      139
 152.5600      161
 152.6000      173
 152.6400      144
 152.6800      156
 152.7200      171
 152.7600      172
 152.8000      174
 152.8400      187
 152.8800      196
 152.9200      190
 152.9600      194
 153.0000      196
 153.0400      228
 153.0800      209
 153.1200      208
 153.1600      241
 153.2000      237
 153.2400      250
 153.2800      250
 153.3200      260
 153.3600      268
 153.4000      274
 153.4400      278
 153.4800      255
 153.5200      296
 153.5600      308
 153.6000      300
 153.6400      324
 153.6800      337
 153.7200      340
 153.7600      359
 153.8000      370
 153.8400      345
 153.8800      379
 153.9200      390
 153.9600      432
 154.0000      386
 154.0400      401
 154.0800      420
 154.1200      436
 154.1600      445
 154.2000      439
 154.2400      447
 154.2800      449
 154.3200      455
 154.3600      462
 154.4000      436
 154.4400      479
 154.4800      523
 154.5200      478
 154.5600      472
 154.6000      500
 154.6400      478
 154.6800      453
 154.7200      504
 154.7600      458
 154.8000      495
 154.8400      481
 154.8800      523
 154.9200      502
 154.9600      458
 155.0000      465