File: XRD_Tool/XRD_Tool/bin/Debug/SDD_sample_name_01234_Psi-0_20180602-095443.txt
 145.0000       42
 145.0400       32
 145.0800       38
 145.1200       28
 145.1600       24
 145.2000       37
 145.2400       42
 145.2800       47
 145.3200       46
 145.3600       45
 145.4000       33
 145.4400       34
 145.4800       29
 145.5200       33
 145.5600       48
 145.6000       35
 145.6400       34
 145.6800       33
 145.7200       29
 145.7600       36
 145.8000       26
 145.8400       36
 145.8800       42
 145.9200       40
 145.9600       43
 146.0000       28
 146.0400       29
 146.0800       48
 146.1200       33
 146.1600       43
 146.2000       32
 146.2400       41
 146.2800       42
 146.3200       40
 146.3600       35
 146.4000       44
 146.4400       45
 146.4800       28
 146.5200       45
 146.5600       43
 146.6000       37
 146.6400       50
 146.6800       35
 146.7200       46
 146.7600       55
 146.8000       36
 146.8400       43
 146.8800       33
 146.9200       36
 146.9600       30
 147.0000       43
 147.0400       33
 147.0800       39
 147.1200       38
 147.1600       34
 147.2000       42
 147.2400       46
 147.2800       29
 147.3200       38
 147.3600       37
 147.4000       30
 147.4400       34
 147.4800       29
 147.5200       43
 147.5600       38
 147.6000       25
 147.6400       41
 147.6800       39
 147.7200       41
 147.7600       33
 147.8000       43
 147.8400       43
 147.8800       51
 147.9200       47
 147.9600       54
 148.0000       52
 148.0400       50
 148.0800       45
 148.1200       34
 148.1600       38
 148.2000       52
 148.2400       45
 148.2800       42
 148.3200       41
 148.3600       37
 148.4000       31
 148.4400       42
 148.4800       49
 148.5200       42
 148.5600       56
 148.6000       40
 148.6400       36
 148.6800       43
 148.7200       52
 148.7600       49
 148.8000       41
 148.8400       57
 148.8800       54
 148.9200       57
 148.9600       38
 149.0000       51
 149.0400       58
 149.0800       45
 149.1200       38
 149.1600       49
 149.2000       50
 149.2400       55
 149.2800       58
 149.3200       50
 149.3600       62
 149.4000       50
 149.4400       43
 149.4800       48
 149.5200       44
 149.5600       44
 149.6000       59
 149.6400       32
 149.6800       44
 149.7200       57
 149.7600       51
 149.8000       43
 149.8400       59
 149.8800       54
 149.9200       62
 149.9600       49
 150.0000       58
 150.0400       55
 150.0800       51
 150.1200       68
 150.1600       54
 150.2000       54
 150.2400       57
 150.2800       56
 150.3200       45
 150.3600       64
 150.4000       66
 150.4400       66
 150.4800       77
 150.5200       75
 150.5600       64
 150.6000       52
 150.6400       50
 150.6800       75
 150.7200       73
 150.7600       55
 150.8000       55
 150.8400       57
 150.8800       74
 150.9200       65
 150.9600       71
 151.0000       60
 151.0400       75
 151.0800       77
 151.1200       89
 151.1600       72
 151.2000       94
 151.2400       96
 151.2800       71
 151.3200       83
 151.3600       73
 151.4000       75
 151.4400       77
 151.4800       83
 151.5200       91
 151.5600       92
 151.6000       97
 151.6400       81
 151.6800       98
 151.7200       98
 151.7600       98
 151.8000       95
 151.8400       73
 151.8800       95
 151.9200      117
 151.9600      111
 152.0000      101
 152.0400      109
 152.0800      120
 152.1200      106
 152.1600      113
 152.2000      141
 152.2400      128
 152.2800      112
 152.3200      120
 152.3600      121
 152.4000      153
 152.4400      131
 152.4800      148
 152.5200      128
 152.5600      144
 152.6000      156
 152.6400      166
 152.6800      147
 152.7200      160
 152.7600      183
 152.8000      185
 152.8400      170
 152.8800      175
 152.9200      199
 152.9600      211
 153.0000      217
 153.0400      211
 153.0800      209
 153.1200      225
 153.1600      223
 153.2000      248
 153.2400      239
 153.2800      251
 153.3200      266
 153.3600      267
 153.4000      301
 153.4400      294
 153.4800      299
 153.5200      282
 153.5600      284
 153.6000      284
 153.6400      358
 153.6800      332
 153.7200      330
 153.7600      342
 153.8000      341
 153.8400      371
 153.8800      380
 153.9200      383
 153.9600      374
 154.0000      431
 154.0400      414
 154.0800      410
 154.1200      438
 154.1600      444
 154.2000      452
 154.2400      454
 154.2800      418
 154.3200      471
 154.3600      439
 154.4000      442
 154.4400      477
 154.4800      476
 154.5200      456
 154.5600      481
 154.6000      479
 154.6400      471
 154.6800      482
 154.7200      505
 154.7600      457
 154.8000      473
 154.8400      445
 154.8800      469
 154.9200      464
 154.9600      491
 155.0000      472