File: XRD_Tool/XRD_Tool/bin/Debug/SDD_sample_name_01234_Psi-15_20180602-151515.txt
 145.0000       35
 145.0400       42
 145.0800       41
 145.1200       42
 145.1600       40
 145.2000       30
 145.2400       37
 145.2800       46
 145.3200       31
 145.3600       37
 145.4000       32
 145.4400       54
 145.4800       44
 145.5200       34
 145.5600       33
 145.6000       35
 145.6400       31
 145.6800       31
 145.7200       39
 145.7600       49
 145.8000       39
 145.8400       36
 145.8800       40
 145.9200       33
 145.9600       47
 146.0000       42
 146.0400       45
 146.0800       33
 146.1200       37
 146.1600       31
 146.2000       38
 146.2400       47
 146.2800       35
 146.3200       35
 146.3600       40
 146.4000       28
 146.4400       51
 146.4800       33
 146.5200       48
 146.5600       36
 146.6000       40
 146.6400       41
 146.6800       48
 146.7200       34
 146.7600       39
 146.8000       35
 146.8400       42
 146.8800       34
 146.9200       40
 146.9600       40
 147.0000       38
 147.0400       41
 147.0800       38
 147.1200       40
 147.1600       41
 147.2000       41
 147.2400       43
 147.2800       39
 147.3200       41
 147.3600       47
 147.4000       43
 147.4400       27
 147.4800       45
 147.5200       45
 147.5600       37
 147.6000       44
 147.6400       34
 147.6800       43
 147.7200       42
 147.7600       65
 147.8000       42
 147.8400       47
 147.8800       52
 147.9200       46
 147.9600       41
 148.0000       43
 148.0400       44
 148.0800       39
 148.1200       39
 148.1600       42
 148.2000       43
 148.2400       43
 148.2800       46
 148.3200       35
 148.3600       37
 148.4000       39
 148.4400       34
 148.4800       45
 148.5200       49
 148.5600       45
 148.6000       48
 148.6400       44
 148.6800       41
 148.7200       52
 148.7600       34
 148.8000       38
 148.8400       57
 148.8800       50
 148.9200       55
 148.9600       44
 149.0000       56
 149.0400       56
 149.0800       53
 149.1200       44
 149.1600       47
 149.2000       36
 149.2400       43
 149.2800       61
 149.3200       42
 149.3600       58
 149.4000       44
 149.4400       50
 149.4800       40
 149.5200       51
 149.5600       52
 149.6000       80
 149.6400       50
 149.6800       54
 149.7200       53
 149.7600       63
 149.8000       51
 149.8400       41
 149.8800       49
 149.9200       59
 149.9600       67
 150.0000       58
 150.0400       49
 150.0800       54
 150.1200       70
 150.1600       51
 150.2000       39
 150.2400       63
 150.2800       54
 150.3200       49
 150.3600       54
 150.4000       52
 150.4400       58
 150.4800       53
 150.5200       51
 150.5600       64
 150.6000       53
 150.6400       63
 150.6800       70
 150.7200       63
 150.7600       66
 150.8000       70
 150.8400       61
 150.8800       61
 150.9200       71
 150.9600       59
 151.0000       75
 151.0400       67
 151.0800       66
 151.1200       81
 151.1600       93
 151.2000       78
 151.2400       71
 151.2800       89
 151.3200       70
 151.3600       82
 151.4000       93
 151.4400       75
 151.4800       73
 151.5200       88
 151.5600       70
 151.6000       72
 151.6400       87
 151.6800       92
 151.7200       83
 151.7600       87
 151.8000      100
 151.8400       98
 151.8800      105
 151.9200       97
 151.9600      103
 152.0000       99
 152.0400       89
 152.0800      111
 152.1200      118
 152.1600      103
 152.2000      113
 152.2400      119
 152.2800      121
 152.3200      133
 152.3600      123
 152.4000      107
 152.4400      141
 152.4800      123
 152.5200      107
 152.5600      157
 152.6000      144
 152.6400      145
 152.6800      168
 152.7200      199
 152.7600      158
 152.8000      163
 152.8400      158
 152.8800      184
 152.9200      179
 152.9600      169
 153.0000      208
 153.0400      186
 153.0800      223
 153.1200      195
 153.1600      203
 153.2000      205
 153.2400      233
 153.2800      252
 153.3200      230
 153.3600      240
 153.4000      252
 153.4400      256
 153.4800      257
 153.5200      298
 153.5600      302
 153.6000      277
 153.6400      277
 153.6800      274
 153.7200      319
 153.7600      358
 153.8000      319
 153.8400      340
 153.8800      349
 153.9200      334
 153.9600      349
 154.0000      383
 154.0400      399
 154.0800      395
 154.1200      386
 154.1600      372
 154.2000      404
 154.2400      433
 154.2800      406
 154.3200      412
 154.3600      430
 154.4000      414
 154.4400      440
 154.4800      509
 154.5200      435
 154.5600      464
 154.6000      468
 154.6400      430
 154.6800      480
 154.7200      483
 154.7600      436
 154.8000      444
 154.8400      432
 154.8800      466
 154.9200      453
 154.9600      464
 155.0000      435