File: XRD_Tool/XRD_Tool/bin/Debug/SDD_sample_name_01234_Psi-15_20180527-125217.txt
 147.5000       47
 147.5200       50
 147.5400       45
 147.5600       61
 147.5800       44
 147.6000       43
 147.6200       64
 147.6400       52
 147.6600       47
 147.6800       67
 147.7000       46
 147.7200       50
 147.7400       49
 147.7600       70
 147.7800       53
 147.8000       52
 147.8200       52
 147.8400       51
 147.8600       66
 147.8800       54
 147.9000       56
 147.9200       49
 147.9400       46
 147.9600       48
 147.9800       50
 148.0000       70
 148.0200       54
 148.0400       41
 148.0600       51
 148.0800       48
 148.1000       50
 148.1200       42
 148.1400       61
 148.1600       46
 148.1800       60
 148.2000       67
 148.2200       56
 148.2400       66
 148.2600       44
 148.2800       65
 148.3000       36
 148.3200       62
 148.3400       43
 148.3600       65
 148.3800       49
 148.4000       63
 148.4200       47
 148.4400       58
 148.4600       55
 148.4800       43
 148.5000       65
 148.5200       58
 148.5400       51
 148.5600       49
 148.5800       44
 148.6000       56
 148.6200       52
 148.6400       60
 148.6600       60
 148.6800       59
 148.7000       56
 148.7200       64
 148.7400       61
 148.7600       63
 148.7800       56
 148.8000       52
 148.8200       47
 148.8400       57
 148.8600       61
 148.8800       57
 148.9000       57
 148.9200       52
 148.9400       61
 148.9600       60
 148.9800       53
 149.0000       67
 149.0200       69
 149.0400       43
 149.0600       63
 149.0800       59
 149.1000       65
 149.1200       61
 149.1400       55
 149.1600       57
 149.1800       56
 149.2000       62
 149.2200       54
 149.2400       63
 149.2600       49
 149.2800       55
 149.3000       67
 149.3200       57
 149.3400       48
 149.3600       54
 149.3800       50
 149.4000       57
 149.4200       61
 149.4400       60
 149.4600       64
 149.4800       74
 149.5000       70
 149.5200       61
 149.5400       57
 149.5600       66
 149.5800       68
 149.6000       69
 149.6200       55
 149.6400       65
 149.6600       62
 149.6800       69
 149.7000       57
 149.7200       56
 149.7400       65
 149.7600       62
 149.7800       56
 149.8000       54
 149.8200       62
 149.8400       71
 149.8600       64
 149.8800       53
 149.9000       58
 149.9200       59
 149.9400       69
 149.9600       57
 149.9800       61
 150.0000       63
 150.0200       76
 150.0400       78
 150.0600       61
 150.0800       53
 150.1000       70
 150.1200       57
 150.1400       65
 150.1600       59
 150.1800       49
 150.2000       74
 150.2200       74
 150.2400       60
 150.2600       68
 150.2800       50
 150.3000       64
 150.3200       82
 150.3400       58
 150.3600       55
 150.3800       70
 150.4000       68
 150.4200       64
 150.4400       68
 150.4600       60
 150.4800       77
 150.5000       69
 150.5200       71
 150.5400       67
 150.5600       62
 150.5800       54
 150.6000       70
 150.6200       74
 150.6400       54
 150.6600       64
 150.6800       79
 150.7000       75
 150.7200       76
 150.7400       74
 150.7600       54
 150.7800       70
 150.8000       60
 150.8200       67
 150.8400       68
 150.8600       77
 150.8800       58
 150.9000       77
 150.9200       77
 150.9400       86
 150.9600       79
 150.9800       71
 151.0000       49
 151.0200       78
 151.0400       75
 151.0600       82
 151.0800       72
 151.1000       77
 151.1200       80
 151.1400       83
 151.1600       95
 151.1800       67
 151.2000       75
 151.2200       80
 151.2400       75
 151.2600       61
 151.2800       93
 151.3000       94
 151.3200       77
 151.3400      103
 151.3600      113
 151.3800       68
 151.4000       91
 151.4200       91
 151.4400       99
 151.4600       91
 151.4800      118
 151.5000       68
 151.5200       98
 151.5400       91
 151.5600       80
 151.5800       76
 151.6000       97
 151.6200       91
 151.6400       95
 151.6600       86
 151.6800      101
 151.7000       96
 151.7200       95
 151.7400       83
 151.7600       82
 151.7800      118
 151.8000      104
 151.8200      103
 151.8400      107
 151.8600       95
 151.8800       97
 151.9000       97
 151.9200      115
 151.9400       94
 151.9600      131
 151.9800      117
 152.0000      120
 152.0200      117
 152.0400      114
 152.0600      108
 152.0800      115
 152.1000      111
 152.1200      127
 152.1400      118
 152.1600      116
 152.1800      114
 152.2000      135
 152.2200      127
 152.2400      127
 152.2600      118
 152.2800      117
 152.3000      123
 152.3200      113
 152.3400      124
 152.3600      124
 152.3800       95
 152.4000      154
 152.4200      155
 152.4400      139
 152.4600      155
 152.4800      142
 152.5000      142