File: XRD_Tool/XRD_Tool/bin/Debug/SDD_sample_name_01234_Psi-15_20180602-174216.txt
 150.0000      109
 150.0200      128
 150.0400      110
 150.0600      112
 150.0800      118
 150.1000      117
 150.1200      135
 150.1400      105
 150.1600      124
 150.1800      137
 150.2000      119
 150.2200      155
 150.2400      124
 150.2600      102
 150.2800      138
 150.3000      127
 150.3200      130
 150.3400      110
 150.3600      136
 150.3800       98
 150.4000      127
 150.4200      130
 150.4400      127
 150.4600      121
 150.4800      157
 150.5000      129
 150.5200      135
 150.5400      153
 150.5600      127
 150.5800      150
 150.6000      120
 150.6200      158
 150.6400      151
 150.6600      133
 150.6800      152
 150.7000      145
 150.7200      145
 150.7400      165
 150.7600      140
 150.7800      127
 150.8000      143
 150.8200      157
 150.8400      163
 150.8600      173
 150.8800      144
 150.9000      166
 150.9200      153
 150.9400      179
 150.9600      156
 150.9800      156
 151.0000      163
 151.0200      161
 151.0400      151
 151.0600      160
 151.0800      154
 151.1000      161
 151.1200      180
 151.1400      164
 151.1600      186
 151.1800      169
 151.2000      170
 151.2200      161
 151.2400      181
 151.2600      174
 151.2800      191
 151.3000      162
 151.3200      173
 151.3400      202
 151.3600      174
 151.3800      175
 151.4000      175
 151.4200      188
 151.4400      195
 151.4600      242
 151.4800      204
 151.5000      209
 151.5200      183
 151.5400      164
 151.5600      204
 151.5800      207
 151.6000      187
 151.6200      226
 151.6400      193
 151.6600      200
 151.6800      207
 151.7000      237
 151.7200      207
 151.7400      222
 151.7600      204
 151.7800      217
 151.8000      204
 151.8200      204
 151.8400      190
 151.8600      206
 151.8800      231
 151.9000      210
 151.9200      219
 151.9400      220
 151.9600      244
 151.9800      244
 152.0000      250
 152.0200      244
 152.0400      211
 152.0600      238
 152.0800      236
 152.1000      199
 152.1200      223
 152.1400      219
 152.1600      255
 152.1800      231
 152.2000      264
 152.2200      249
 152.2400      260
 152.2600      261
 152.2800      270
 152.3000      218
 152.3200      253
 152.3400      270
 152.3600      264
 152.3800      297
 152.4000      279
 152.4200      272
 152.4400      261
 152.4600      266
 152.4800      268
 152.5000      255
 152.5200      283
 152.5400      269
 152.5600      280
 152.5800      269
 152.6000      290
 152.6200      288
 152.6400      287
 152.6600      282
 152.6800      305
 152.7000      317
 152.7200      293
 152.7400      291
 152.7600      319
 152.7800      316
 152.8000      336
 152.8200      287
 152.8400      309
 152.8600      288
 152.8800      344
 152.9000      295
 152.9200      317
 152.9400      336
 152.9600      323
 152.9800      317
 153.0000      325
 153.0200      353
 153.0400      350
 153.0600      331
 153.0800      323
 153.1000      310
 153.1200      357
 153.1400      367
 153.1600      328
 153.1800      325
 153.2000      316
 153.2200      370
 153.2400      330
 153.2600      343
 153.2800      349
 153.3000      373
 153.3200      405
 153.3400      362
 153.3600      338
 153.3800      379
 153.4000      338
 153.4200      387
 153.4400      367
 153.4600      398
 153.4800      392
 153.5000      380
 153.5200      382
 153.5400      352
 153.5600      375
 153.5800      396
 153.6000      412
 153.6200      385
 153.6400      424
 153.6600      429
 153.6800      405
 153.7000      402
 153.7200      412
 153.7400      376
 153.7600      435
 153.7800      381
 153.8000      415
 153.8200      387
 153.8400      438
 153.8600      420
 153.8800      422
 153.9000      424
 153.9200      422
 153.9400      426
 153.9600      433
 153.9800      456
 154.0000      429
 154.0200      411
 154.0400      418
 154.0600      453
 154.0800      448
 154.1000      429
 154.1200      426
 154.1400      432
 154.1600      418
 154.1800      421
 154.2000      446
 154.2200      429
 154.2400      474
 154.2600      458
 154.2800      438
 154.3000      430
 154.3200      436
 154.3400      451
 154.3600      440
 154.3800      452
 154.4000      445
 154.4200      437
 154.4400      470
 154.4600      442
 154.4800      436
 154.5000      445
 154.5200      408
 154.5400      498
 154.5600      444
 154.5800      444
 154.6000      424
 154.6200      466
 154.6400      429
 154.6600      477
 154.6800      462
 154.7000      441
 154.7200      481
 154.7400      439
 154.7600      502
 154.7800      493
 154.8000      512
 154.8200      453
 154.8400      469
 154.8600      434
 154.8800      481
 154.9000      456
 154.9200      475
 154.9400      466
 154.9600      505
 154.9800      441
 155.0000      478