File: XRD_Tool/XRD_Tool/bin/Debug/SDD_sample_name_01234_Psi-30_20180527-124026.txt
 147.5000       45
 147.5200       50
 147.5400       58
 147.5600       49
 147.5800       72
 147.6000       43
 147.6200       49
 147.6400       49
 147.6600       43
 147.6800       58
 147.7000       48
 147.7200       46
 147.7400       48
 147.7600       58
 147.7800       44
 147.8000       45
 147.8200       50
 147.8400       43
 147.8600       62
 147.8800       52
 147.9000       41
 147.9200       67
 147.9400       52
 147.9600       54
 147.9800       42
 148.0000       58
 148.0200       49
 148.0400       63
 148.0600       49
 148.0800       52
 148.1000       55
 148.1200       55
 148.1400       47
 148.1600       42
 148.1800       57
 148.2000       49
 148.2200       55
 148.2400       55
 148.2600       51
 148.2800       52
 148.3000       57
 148.3200       58
 148.3400       48
 148.3600       55
 148.3800       50
 148.4000       45
 148.4200       46
 148.4400       53
 148.4600       43
 148.4800       47
 148.5000       48
 148.5200       55
 148.5400       54
 148.5600       57
 148.5800       65
 148.6000       43
 148.6200       39
 148.6400       62
 148.6600       52
 148.6800       46
 148.7000       54
 148.7200       54
 148.7400       57
 148.7600       55
 148.7800       58
 148.8000       59
 148.8200       55
 148.8400       33
 148.8600       59
 148.8800       67
 148.9000       73
 148.9200       57
 148.9400       72
 148.9600       48
 148.9800       57
 149.0000       59
 149.0200       46
 149.0400       53
 149.0600       60
 149.0800       56
 149.1000       48
 149.1200       54
 149.1400       54
 149.1600       56
 149.1800       52
 149.2000       56
 149.2200       54
 149.2400       52
 149.2600       52
 149.2800       58
 149.3000       54
 149.3200       48
 149.3400       62
 149.3600       52
 149.3800       67
 149.4000       64
 149.4200       34
 149.4400       56
 149.4600       54
 149.4800       52
 149.5000       43
 149.5200       54
 149.5400       61
 149.5600       62
 149.5800       60
 149.6000       66
 149.6200       66
 149.6400       59
 149.6600       56
 149.6800       64
 149.7000       62
 149.7200       61
 149.7400       43
 149.7600       59
 149.7800       44
 149.8000       59
 149.8200       63
 149.8400       50
 149.8600       55
 149.8800       51
 149.9000       67
 149.9200       54
 149.9400       63
 149.9600       51
 149.9800       52
 150.0000       57
 150.0200       65
 150.0400       51
 150.0600       43
 150.0800       70
 150.1000       78
 150.1200       55
 150.1400       55
 150.1600       47
 150.1800       53
 150.2000       68
 150.2200       42
 150.2400       66
 150.2600       57
 150.2800       53
 150.3000       65
 150.3200       53
 150.3400       75
 150.3600       72
 150.3800       67
 150.4000       67
 150.4200       69
 150.4400       79
 150.4600       72
 150.4800       70
 150.5000       72
 150.5200       95
 150.5400       63
 150.5600       78
 150.5800       51
 150.6000       75
 150.6200       61
 150.6400       76
 150.6600       76
 150.6800       73
 150.7000       59
 150.7200       68
 150.7400       66
 150.7600       74
 150.7800       67
 150.8000       71
 150.8200       66
 150.8400       68
 150.8600       66
 150.8800       77
 150.9000       76
 150.9200       75
 150.9400       57
 150.9600       60
 150.9800       78
 151.0000       68
 151.0200       67
 151.0400       74
 151.0600       60
 151.0800       65
 151.1000       68
 151.1200       70
 151.1400       77
 151.1600       86
 151.1800       81
 151.2000       74
 151.2200       70
 151.2400       73
 151.2600       84
 151.2800       80
 151.3000       73
 151.3200       86
 151.3400       83
 151.3600       74
 151.3800       76
 151.4000       92
 151.4200       72
 151.4400       87
 151.4600       96
 151.4800       80
 151.5000       79
 151.5200       70
 151.5400       81
 151.5600      107
 151.5800       79
 151.6000       90
 151.6200       72
 151.6400       93
 151.6600       96
 151.6800      102
 151.7000       66
 151.7200       82
 151.7400      110
 151.7600       86
 151.7800       74
 151.8000       94
 151.8200       83
 151.8400       90
 151.8600       85
 151.8800       81
 151.9000       96
 151.9200       90
 151.9400       80
 151.9600      105
 151.9800       91
 152.0000       95
 152.0200       92
 152.0400      103
 152.0600      105
 152.0800      109
 152.1000      105
 152.1200      110
 152.1400      112
 152.1600      107
 152.1800       85
 152.2000      107
 152.2200      113
 152.2400      102
 152.2600       90
 152.2800      115
 152.3000      114
 152.3200      100
 152.3400      127
 152.3600      110
 152.3800       97
 152.4000      120
 152.4200       95
 152.4400      107
 152.4600      108
 152.4800      126
 152.5000      129