File: XRD_Tool/XRD_Tool/bin/Debug/SDD_sample_name_01234_Psi-45_20180602-171742.txt
 150.0000       67
 150.0200       93
 150.0400       90
 150.0600       93
 150.0800       81
 150.1000       99
 150.1200       93
 150.1400      113
 150.1600      107
 150.1800       95
 150.2000      116
 150.2200       93
 150.2400       96
 150.2600       95
 150.2800       84
 150.3000      107
 150.3200       96
 150.3400      102
 150.3600      106
 150.3800      103
 150.4000      108
 150.4200       98
 150.4400       98
 150.4600       97
 150.4800      103
 150.5000       96
 150.5200       91
 150.5400       96
 150.5600       97
 150.5800      116
 150.6000      120
 150.6200       97
 150.6400      101
 150.6600      101
 150.6800       96
 150.7000      110
 150.7200      116
 150.7400      113
 150.7600      110
 150.7800      105
 150.8000      101
 150.8200      101
 150.8400      100
 150.8600      101
 150.8800      111
 150.9000       97
 150.9200      121
 150.9400       90
 150.9600      131
 150.9800      123
 151.0000       96
 151.0200      104
 151.0400      123
 151.0600      122
 151.0800      113
 151.1000      101
 151.1200      120
 151.1400      111
 151.1600      125
 151.1800      124
 151.2000      135
 151.2200      119
 151.2400      138
 151.2600      118
 151.2800      119
 151.3000      122
 151.3200      137
 151.3400      133
 151.3600      135
 151.3800      126
 151.4000      135
 151.4200      136
 151.4400      132
 151.4600      121
 151.4800      133
 151.5000      134
 151.5200      133
 151.5400      127
 151.5600      121
 151.5800      147
 151.6000      146
 151.6200      139
 151.6400      158
 151.6600      143
 151.6800      146
 151.7000      152
 151.7200      139
 151.7400      148
 151.7600      140
 151.7800      148
 151.8000      154
 151.8200      134
 151.8400      132
 151.8600      145
 151.8800      124
 151.9000      137
 151.9200      158
 151.9400      174
 151.9600      154
 151.9800      155
 152.0000      140
 152.0200      154
 152.0400      151
 152.0600      172
 152.0800      143
 152.1000      162
 152.1200      170
 152.1400      150
 152.1600      164
 152.1800      145
 152.2000      155
 152.2200      163
 152.2400      158
 152.2600      188
 152.2800      184
 152.3000      162
 152.3200      182
 152.3400      191
 152.3600      154
 152.3800      179
 152.4000      197
 152.4200      213
 152.4400      179
 152.4600      165
 152.4800      182
 152.5000      161
 152.5200      169
 152.5400      181
 152.5600      197
 152.5800      191
 152.6000      173
 152.6200      203
 152.6400      188
 152.6600      172
 152.6800      195
 152.7000      185
 152.7200      183
 152.7400      196
 152.7600      170
 152.7800      223
 152.8000      179
 152.8200      212
 152.8400      206
 152.8600      194
 152.8800      212
 152.9000      186
 152.9200      222
 152.9400      204
 152.9600      200
 152.9800      220
 153.0000      214
 153.0200      214
 153.0400      239
 153.0600      224
 153.0800      211
 153.1000      199
 153.1200      236
 153.1400      235
 153.1600      216
 153.1800      219
 153.2000      202
 153.2200      267
 153.2400      231
 153.2600      235
 153.2800      254
 153.3000      239
 153.3200      255
 153.3400      242
 153.3600      274
 153.3800      280
 153.4000      257
 153.4200      219
 153.4400      239
 153.4600      250
 153.4800      245
 153.5000      273
 153.5200      249
 153.5400      244
 153.5600      236
 153.5800      277
 153.6000      261
 153.6200      284
 153.6400      269
 153.6600      271
 153.6800      270
 153.7000      281
 153.7200      255
 153.7400      266
 153.7600      246
 153.7800      240
 153.8000      277
 153.8200      286
 153.8400      300
 153.8600      270
 153.8800      304
 153.9000      271
 153.9200      306
 153.9400      275
 153.9600      305
 153.9800      301
 154.0000      300
 154.0200      268
 154.0400      283
 154.0600      268
 154.0800      283
 154.1000      297
 154.1200      285
 154.1400      319
 154.1600      284
 154.1800      328
 154.2000      322
 154.2200      299
 154.2400      320
 154.2600      326
 154.2800      337
 154.3000      323
 154.3200      313
 154.3400      301
 154.3600      335
 154.3800      332
 154.4000      333
 154.4200      306
 154.4400      332
 154.4600      365
 154.4800      325
 154.5000      362
 154.5200      309
 154.5400      339
 154.5600      345
 154.5800      334
 154.6000      328
 154.6200      354
 154.6400      362
 154.6600      332
 154.6800      355
 154.7000      371
 154.7200      347
 154.7400      383
 154.7600      340
 154.7800      324
 154.8000      351
 154.8200      363
 154.8400      368
 154.8600      353
 154.8800      368
 154.9000      338
 154.9200      380
 154.9400      376
 154.9600      361
 154.9800      378
 155.0000      377