File: XRD_Tool/XRD_Tool/bin/Debug/SDD_sample_name_01234_Psi-30_20180602-171707.txt
 150.0000       94
 150.0200      120
 150.0400      108
 150.0600      104
 150.0800      108
 150.1000       90
 150.1200      110
 150.1400       92
 150.1600      109
 150.1800       89
 150.2000       99
 150.2200       93
 150.2400      105
 150.2600       90
 150.2800      122
 150.3000      120
 150.3200       87
 150.3400      119
 150.3600      127
 150.3800      127
 150.4000      109
 150.4200      106
 150.4400      126
 150.4600      130
 150.4800      103
 150.5000      110
 150.5200      115
 150.5400      127
 150.5600       95
 150.5800      126
 150.6000      118
 150.6200      113
 150.6400      118
 150.6600      112
 150.6800      124
 150.7000      115
 150.7200      113
 150.7400      109
 150.7600      135
 150.7800      138
 150.8000      138
 150.8200      131
 150.8400      130
 150.8600      142
 150.8800      137
 150.9000      116
 150.9200      130
 150.9400      114
 150.9600      109
 150.9800      133
 151.0000      140
 151.0200      133
 151.0400      117
 151.0600      132
 151.0800      132
 151.1000      118
 151.1200      155
 151.1400      145
 151.1600      145
 151.1800      153
 151.2000      140
 151.2200      130
 151.2400      133
 151.2600      157
 151.2800      135
 151.3000      148
 151.3200      166
 151.3400      166
 151.3600      145
 151.3800      142
 151.4000      164
 151.4200      157
 151.4400      138
 151.4600      146
 151.4800      172
 151.5000      174
 151.5200      145
 151.5400      172
 151.5600      154
 151.5800      169
 151.6000      158
 151.6200      173
 151.6400      152
 151.6600      175
 151.6800      168
 151.7000      198
 151.7200      196
 151.7400      184
 151.7600      165
 151.7800      151
 151.8000      147
 151.8200      174
 151.8400      163
 151.8600      180
 151.8800      178
 151.9000      162
 151.9200      174
 151.9400      176
 151.9600      175
 151.9800      189
 152.0000      200
 152.0200      213
 152.0400      194
 152.0600      185
 152.0800      177
 152.1000      190
 152.1200      172
 152.1400      195
 152.1600      200
 152.1800      203
 152.2000      196
 152.2200      179
 152.2400      192
 152.2600      212
 152.2800      213
 152.3000      186
 152.3200      182
 152.3400      205
 152.3600      202
 152.3800      216
 152.4000      221
 152.4200      229
 152.4400      233
 152.4600      238
 152.4800      206
 152.5000      241
 152.5200      207
 152.5400      244
 152.5600      217
 152.5800      221
 152.6000      243
 152.6200      206
 152.6400      237
 152.6600      242
 152.6800      257
 152.7000      227
 152.7200      242
 152.7400      203
 152.7600      243
 152.7800      230
 152.8000      246
 152.8200      254
 152.8400      246
 152.8600      254
 152.8800      250
 152.9000      243
 152.9200      276
 152.9400      244
 152.9600      248
 152.9800      254
 153.0000      276
 153.0200      256
 153.0400      289
 153.0600      266
 153.0800      271
 153.1000      280
 153.1200      283
 153.1400      260
 153.1600      294
 153.1800      258
 153.2000      319
 153.2200      314
 153.2400      283
 153.2600      280
 153.2800      296
 153.3000      290
 153.3200      288
 153.3400      278
 153.3600      293
 153.3800      314
 153.4000      305
 153.4200      306
 153.4400      278
 153.4600      332
 153.4800      335
 153.5000      292
 153.5200      309
 153.5400      302
 153.5600      301
 153.5800      327
 153.6000      324
 153.6200      329
 153.6400      341
 153.6600      303
 153.6800      326
 153.7000      330
 153.7200      313
 153.7400      343
 153.7600      341
 153.7800      326
 153.8000      334
 153.8200      314
 153.8400      359
 153.8600      342
 153.8800      381
 153.9000      379
 153.9200      338
 153.9400      339
 153.9600      381
 153.9800      329
 154.0000      353
 154.0200      364
 154.0400      346
 154.0600      361
 154.0800      345
 154.1000      345
 154.1200      390
 154.1400      365
 154.1600      385
 154.1800      364
 154.2000      358
 154.2200      359
 154.2400      373
 154.2600      395
 154.2800      379
 154.3000      420
 154.3200      381
 154.3400      353
 154.3600      407
 154.3800      397
 154.4000      428
 154.4200      403
 154.4400      387
 154.4600      390
 154.4800      434
 154.5000      362
 154.5200      414
 154.5400      412
 154.5600      391
 154.5800      386
 154.6000      397
 154.6200      395
 154.6400      396
 154.6600      404
 154.6800      360
 154.7000      431
 154.7200      411
 154.7400      427
 154.7600      420
 154.7800      392
 154.8000      404
 154.8200      383
 154.8400      440
 154.8600      386
 154.8800      418
 154.9000      434
 154.9200      417
 154.9400      394
 154.9600      413
 154.9800      404
 155.0000      431