File: XRD_Tool/XRD_Tool/bin/Debug/SDD_sample_name_001_Psi-45_20180528-050607.txt
 150.0000       68
 150.0400       73
 150.0800       58
 150.1200       58
 150.1600       62
 150.2000       66
 150.2400       61
 150.2800       54
 150.3200       76
 150.3600       71
 150.4000       66
 150.4400       54
 150.4800       69
 150.5200       61
 150.5600       76
 150.6000       78
 150.6400       62
 150.6800       65
 150.7200       65
 150.7600       79
 150.8000       70
 150.8400       82
 150.8800       80
 150.9200       68
 150.9600       65
 151.0000       59
 151.0400       79
 151.0800       71
 151.1200       83
 151.1600       72
 151.2000       73
 151.2400       91
 151.2800       73
 151.3200       71
 151.3600       62
 151.4000       79
 151.4400       81
 151.4800       71
 151.5200       84
 151.5600       71
 151.6000       75
 151.6400       77
 151.6800       83
 151.7200       91
 151.7600       92
 151.8000       88
 151.8400       91
 151.8800       77
 151.9200       78
 151.9600      100
 152.0000       76
 152.0400       89
 152.0800      102
 152.1200       92
 152.1600      101
 152.2000      106
 152.2400      106
 152.2800      105
 152.3200      106
 152.3600      100
 152.4000      104
 152.4400      112
 152.4800      112
 152.5200      127
 152.5600      120
 152.6000      106
 152.6400      106
 152.6800      122
 152.7200      116
 152.7600      135
 152.8000      143
 152.8400      123
 152.8800      123
 152.9200      130
 152.9600      137
 153.0000      130
 153.0400      142
 153.0800      110
 153.1200      152
 153.1600      143
 153.2000      151
 153.2400      169
 153.2800      151
 153.3200      153
 153.3600      166
 153.4000      187
 153.4400      176
 153.4800      169
 153.5200      173
 153.5600      196
 153.6000      216
 153.6400      197
 153.6800      180
 153.7200      193
 153.7600      202
 153.8000      193
 153.8400      236
 153.8800      208
 153.9200      224
 153.9600      219
 154.0000      255
 154.0400      252
 154.0800      260
 154.1200      251
 154.1600      275
 154.2000      286
 154.2400      279
 154.2800      282
 154.3200      317
 154.3600      288
 154.4000      315
 154.4400      308
 154.4800      322
 154.5200      316
 154.5600      305
 154.6000      371
 154.6400      335
 154.6800      347
 154.7200      360
 154.7600      399
 154.8000      357
 154.8400      360
 154.8800      387
 154.9200      389
 154.9600      388
 155.0000      383
 155.0400      389
 155.0800      384
 155.1200      396
 155.1600      364
 155.2000      396
 155.2400      413
 155.2800      441
 155.3200      388
 155.3600      414
 155.4000      430
 155.4400      393
 155.4800      392
 155.5200      421
 155.5600      403
 155.6000      374
 155.6400      432
 155.6800      379
 155.7200      377
 155.7600      391
 155.8000      409
 155.8400      366
 155.8800      433
 155.9200      416
 155.9600      386
 156.0000      367
 156.0400      381
 156.0800      380
 156.1200      359
 156.1600      370
 156.2000      334
 156.2400      368
 156.2800      362
 156.3200      337
 156.3600      344
 156.4000      346
 156.4400      331
 156.4800      303
 156.5200      322
 156.5600      313
 156.6000      272
 156.6400      282
 156.6800      251
 156.7200      283
 156.7600      276
 156.8000      283
 156.8400      283
 156.8800      257
 156.9200      217
 156.9600      259
 157.0000      248
 157.0400      243
 157.0800      231
 157.1200      230
 157.1600      227
 157.2000      220
 157.2400      229
 157.2800      211
 157.3200      211
 157.3600      210
 157.4000      197
 157.4400      181
 157.4800      225
 157.5200      176
 157.5600      198
 157.6000      168
 157.6400      175
 157.6800      167
 157.7200      169
 157.7600      167
 157.8000      172
 157.8400      161
 157.8800      177
 157.9200      158
 157.9600      143
 158.0000      157
 158.0400      165
 158.0800      147
 158.1200      138
 158.1600      143
 158.2000      150
 158.2400      121
 158.2800      142
 158.3200      140
 158.3600      140
 158.4000      118
 158.4400      116
 158.4800      116
 158.5200      122
 158.5600      128
 158.6000      115
 158.6400      129
 158.6800      117
 158.7200      106
 158.7600      115
 158.8000       99
 158.8400      127
 158.8800      115
 158.9200       97
 158.9600      116
 159.0000       96
 159.0400      103
 159.0800       95
 159.1200      103
 159.1600      106
 159.2000       87
 159.2400      107
 159.2800       92
 159.3200      111
 159.3600      104
 159.4000      108
 159.4400      105
 159.4800       96
 159.5200      100
 159.5600       93
 159.6000      104
 159.6400       91
 159.6800       96
 159.7200       71
 159.7600       74
 159.8000       91
 159.8400       99
 159.8800       80
 159.9200       79
 159.9600       81
 160.0000       81