File: XRD_Tool/XRD_Tool/bin/Debug/SDD_sample_name_01234_Psi-0_20180527-123930.txt
 147.5000       45
 147.5200       54
 147.5400       54
 147.5600       56
 147.5800       56
 147.6000       45
 147.6200       56
 147.6400       53
 147.6600       42
 147.6800       55
 147.7000       50
 147.7200       60
 147.7400       40
 147.7600       59
 147.7800       66
 147.8000       55
 147.8200       42
 147.8400       64
 147.8600       52
 147.8800       53
 147.9000       53
 147.9200       57
 147.9400       55
 147.9600       48
 147.9800       45
 148.0000       47
 148.0200       74
 148.0400       50
 148.0600       42
 148.0800       41
 148.1000       61
 148.1200       60
 148.1400       64
 148.1600       39
 148.1800       55
 148.2000       67
 148.2200       51
 148.2400       65
 148.2600       52
 148.2800       56
 148.3000       65
 148.3200       58
 148.3400       59
 148.3600       59
 148.3800       52
 148.4000       54
 148.4200       49
 148.4400       56
 148.4600       44
 148.4800       58
 148.5000       57
 148.5200       58
 148.5400       55
 148.5600       59
 148.5800       47
 148.6000       47
 148.6200       59
 148.6400       51
 148.6600       62
 148.6800       46
 148.7000       49
 148.7200       66
 148.7400       64
 148.7600       69
 148.7800       55
 148.8000       54
 148.8200       54
 148.8400       62
 148.8600       43
 148.8800       63
 148.9000       70
 148.9200       55
 148.9400       66
 148.9600       49
 148.9800       56
 149.0000       56
 149.0200       47
 149.0400       58
 149.0600       70
 149.0800       67
 149.1000       54
 149.1200       59
 149.1400       57
 149.1600       69
 149.1800       57
 149.2000       84
 149.2200       50
 149.2400       66
 149.2600       68
 149.2800       92
 149.3000       50
 149.3200       47
 149.3400       65
 149.3600       57
 149.3800       56
 149.4000       61
 149.4200       60
 149.4400       66
 149.4600       53
 149.4800       55
 149.5000       55
 149.5200       68
 149.5400       61
 149.5600       59
 149.5800       69
 149.6000       61
 149.6200       54
 149.6400       74
 149.6600       57
 149.6800       61
 149.7000       68
 149.7200       56
 149.7400       68
 149.7600       69
 149.7800       64
 149.8000       57
 149.8200       65
 149.8400       67
 149.8600       79
 149.8800       62
 149.9000       56
 149.9200       65
 149.9400       76
 149.9600       75
 149.9800       68
 150.0000       66
 150.0200       59
 150.0400       71
 150.0600       72
 150.0800       64
 150.1000       51
 150.1200       63
 150.1400       66
 150.1600       69
 150.1800       52
 150.2000       77
 150.2200       65
 150.2400       68
 150.2600       62
 150.2800       70
 150.3000       57
 150.3200       62
 150.3400       72
 150.3600       50
 150.3800       65
 150.4000       48
 150.4200       62
 150.4400       54
 150.4600       64
 150.4800       74
 150.5000       67
 150.5200       79
 150.5400       84
 150.5600       63
 150.5800       74
 150.6000       74
 150.6200       50
 150.6400       77
 150.6600       73
 150.6800       73
 150.7000       78
 150.7200       76
 150.7400       87
 150.7600       75
 150.7800       67
 150.8000       70
 150.8200       76
 150.8400       69
 150.8600       70
 150.8800       84
 150.9000       80
 150.9200       78
 150.9400       80
 150.9600       82
 150.9800       81
 151.0000       86
 151.0200       78
 151.0400       63
 151.0600       78
 151.0800       75
 151.1000      102
 151.1200       80
 151.1400       81
 151.1600       67
 151.1800      105
 151.2000       94
 151.2200       87
 151.2400       92
 151.2600       96
 151.2800       90
 151.3000       85
 151.3200       85
 151.3400      106
 151.3600       92
 151.3800       94
 151.4000       79
 151.4200       80
 151.4400       84
 151.4600       98
 151.4800       84
 151.5000       88
 151.5200       77
 151.5400       73
 151.5600      103
 151.5800      100
 151.6000       89
 151.6200       92
 151.6400       99
 151.6600       92
 151.6800      108
 151.7000       85
 151.7200       99
 151.7400      108
 151.7600       95
 151.7800       99
 151.8000       97
 151.8200      123
 151.8400      106
 151.8600      107
 151.8800      115
 151.9000       95
 151.9200      102
 151.9400      106
 151.9600      102
 151.9800      136
 152.0000      124
 152.0200      128
 152.0400      136
 152.0600      114
 152.0800      115
 152.1000      111
 152.1200      116
 152.1400      146
 152.1600      134
 152.1800      122
 152.2000      111
 152.2200      128
 152.2400      145
 152.2600      129
 152.2800      137
 152.3000      137
 152.3200      136
 152.3400      142
 152.3600      142
 152.3800      154
 152.4000      138
 152.4200      153
 152.4400      126
 152.4600      144
 152.4800      172
 152.5000      139