File: XRD_Tool/XRD_Tool/bin/Debug/SDD_sample_name_001_Psi-15_20180528-025831.txt
 145.0000       59
 145.0400       49
 145.0800       50
 145.1200       50
 145.1600       46
 145.2000       39
 145.2400       48
 145.2800       46
 145.3200       50
 145.3600       51
 145.4000       41
 145.4400       46
 145.4800       39
 145.5200       41
 145.5600       45
 145.6000       50
 145.6400       54
 145.6800       52
 145.7200       56
 145.7600       43
 145.8000       47
 145.8400       53
 145.8800       54
 145.9200       56
 145.9600       55
 146.0000       53
 146.0400       40
 146.0800       41
 146.1200       46
 146.1600       58
 146.2000       47
 146.2400       33
 146.2800       44
 146.3200       48
 146.3600       49
 146.4000       41
 146.4400       47
 146.4800       45
 146.5200       44
 146.5600       57
 146.6000       51
 146.6400       52
 146.6800       48
 146.7200       54
 146.7600       51
 146.8000       44
 146.8400       46
 146.8800       41
 146.9200       47
 146.9600       49
 147.0000       39
 147.0400       58
 147.0800       65
 147.1200       45
 147.1600       57
 147.2000       46
 147.2400       48
 147.2800       51
 147.3200       56
 147.3600       52
 147.4000       51
 147.4400       41
 147.4800       49
 147.5200       46
 147.5600       47
 147.6000       47
 147.6400       43
 147.6800       49
 147.7200       48
 147.7600       55
 147.8000       56
 147.8400       54
 147.8800       61
 147.9200       51
 147.9600       44
 148.0000       45
 148.0400       46
 148.0800       72
 148.1200       41
 148.1600       50
 148.2000       40
 148.2400       48
 148.2800       49
 148.3200       57
 148.3600       48
 148.4000       59
 148.4400       52
 148.4800       65
 148.5200       46
 148.5600       54
 148.6000       61
 148.6400       55
 148.6800       52
 148.7200       55
 148.7600       41
 148.8000       47
 148.8400       53
 148.8800       49
 148.9200       56
 148.9600       51
 149.0000       50
 149.0400       58
 149.0800       51
 149.1200       67
 149.1600       63
 149.2000       55
 149.2400       62
 149.2800       53
 149.3200       65
 149.3600       50
 149.4000       59
 149.4400       54
 149.4800       47
 149.5200       44
 149.5600       68
 149.6000       60
 149.6400       59
 149.6800       51
 149.7200       61
 149.7600       66
 149.8000       66
 149.8400       56
 149.8800       67
 149.9200       59
 149.9600       59
 150.0000       71
 150.0400       66
 150.0800       68
 150.1200       54
 150.1600       64
 150.2000       64
 150.2400       66
 150.2800       61
 150.3200       47
 150.3600       67
 150.4000       58
 150.4400       45
 150.4800       58
 150.5200       72
 150.5600       72
 150.6000       43
 150.6400       67
 150.6800       73
 150.7200       55
 150.7600       64
 150.8000       70
 150.8400       72
 150.8800       67
 150.9200       84
 150.9600       74
 151.0000       57
 151.0400       75
 151.0800       67
 151.1200       64
 151.1600       65
 151.2000       85
 151.2400       99
 151.2800       76
 151.3200       62
 151.3600       92
 151.4000       75
 151.4400       82
 151.4800       80
 151.5200       76
 151.5600       90
 151.6000       81
 151.6400       93
 151.6800       88
 151.7200       94
 151.7600      100
 151.8000       76
 151.8400       85
 151.8800       91
 151.9200      100
 151.9600      107
 152.0000      123
 152.0400       94
 152.0800       93
 152.1200      114
 152.1600       94
 152.2000      127
 152.2400      116
 152.2800      112
 152.3200      126
 152.3600      117
 152.4000      130
 152.4400      125
 152.4800      132
 152.5200      152
 152.5600      135
 152.6000      133
 152.6400      160
 152.6800      141
 152.7200      164
 152.7600      144
 152.8000      165
 152.8400      162
 152.8800      166
 152.9200      150
 152.9600      186
 153.0000      180
 153.0400      186
 153.0800      208
 153.1200      200
 153.1600      179
 153.2000      185
 153.2400      213
 153.2800      226
 153.3200      203
 153.3600      208
 153.4000      250
 153.4400      210
 153.4800      226
 153.5200      242
 153.5600      223
 153.6000      270
 153.6400      252
 153.6800      285
 153.7200      279
 153.7600      270
 153.8000      315
 153.8400      301
 153.8800      325
 153.9200      295
 153.9600      345
 154.0000      336
 154.0400      351
 154.0800      373
 154.1200      352
 154.1600      362
 154.2000      357
 154.2400      376
 154.2800      362
 154.3200      386
 154.3600      391
 154.4000      387
 154.4400      404
 154.4800      405
 154.5200      425
 154.5600      393
 154.6000      416
 154.6400      424
 154.6800      456
 154.7200      425
 154.7600      430
 154.8000      408
 154.8400      465
 154.8800      448
 154.9200      443
 154.9600      438
 155.0000      436