File: XRD_Tool/XRD_Tool/bin/LDA_sample_name_56789_Psi-15_20180603-123042.txt
143.0000     270
143.0800     266
143.1600     220
143.2400     272
143.3200     248
143.4000     231
143.4800     271
143.5600     268
143.6400     257
143.7200     269
143.8000     254
143.8800     241
143.9600     238
144.0400     275
144.1200     265
144.2000     250
144.2800     279
144.3600     265
144.4400     318
144.5200     303
144.6000     261
144.6800     254
144.7600     280
144.8400     248
144.9200     278
145.0000     255
145.0800     273
145.1600     284
145.2400     256
145.3200     301
145.4000     244
145.4800     240
145.5600     275
145.6400     263
145.7200     241
145.8000     259
145.8800     266
145.9600     307
146.0400     252
146.1200     263
146.2000     236
146.2800     295
146.3600     294
146.4400     274
146.5200     266
146.6000     279
146.6800     208
146.7600     249
146.8400     249
146.9200     247
147.0000     280
147.0800     225
147.1600     311
147.2400     255
147.3200     276
147.4000     306
147.4800     293
147.5600     264
147.6400     272
147.7200     301
147.8000     284
147.8800     268
147.9600     253
148.0400     266
148.1200     305
148.2000     311
148.2800     294
148.3600     267
148.4400     280
148.5200     267
148.6000     280
148.6800     264
148.7600     286
148.8400     262
148.9200     289
149.0000     281
149.0800     281
149.1600     287
149.2400     302
149.3200     302
149.4000     307
149.4800     285
149.5600     298
149.6400     282
149.7200     292
149.8000     313
149.8800     287
149.9600     292
150.0400     299
150.1200     308
150.2000     310
150.2800     310
150.3600     277
150.4400     332
150.5200     274
150.6000     320
150.6800     333
150.7600     319
150.8400     314
150.9200     311
151.0000     321
151.0800     325
151.1600     319
151.2400     353
151.3200     347
151.4000     381
151.4800     343
151.5600     346
151.6400     365
151.7200     362
151.8000     388
151.8800     362
151.9600     411
152.0400     387
152.1200     413
152.2000     405
152.2800     398
152.3600     436
152.4400     496
152.5200     495
152.6000     538
152.6800     534
152.7600     527
152.8400     530
152.9200     566
153.0000     564
153.0800     584
153.1600     635
153.2400     624
153.3200     646
153.4000     697
153.4800     701
153.5600     737
153.6400     741
153.7200     717
153.8000     697
153.8800     748
153.9600     766
154.0400     713
154.1200     711
154.2000     778
154.2800     770
154.3600     759
154.4400     751
154.5200     744
154.6000     771
154.6800     764
154.7600     688
154.8400     729
154.9200     725
155.0000     719
155.0800     604
155.1600     678
155.2400     626
155.3200     648
155.4000     619
155.4800     609
155.5600     596
155.6400     601
155.7200     609
155.8000     524
155.8800     535
155.9600     468
156.0400     461
156.1200     473
156.2000     497
156.2800     505
156.3600     459
156.4400     464
156.5200     424
156.6000     422
156.6800     451
156.7600     428
156.8400     401
156.9200     389
157.0000     424
157.0800     393
157.1600     373
157.2400     389
157.3200     347
157.4000     368
157.4800     349
157.5600     320
157.6400     351
157.7200     363
157.8000     332
157.8800     340
157.9600     346
158.0400     347
158.1200     314
158.2000     329
158.2800     329
158.3600     332
158.4400     350
158.5200     322
158.6000     322
158.6800     357
158.7600     307
158.8400     307
158.9200     337
159.0000     280
159.0800     330
159.1600     300
159.2400     305
159.3200     326
159.4000     303
159.4800     305
159.5600     279
159.6400     305
159.7200     266
159.8000     324
159.8800     268
159.9600     292
160.0400     282
160.1200     299
160.2000     316
160.2800     314
160.3600     307
160.4400     321
160.5200     264
160.6000     287
160.6800     301
160.7600     285
160.8400     298
160.9200     265
161.0000     272
161.0800     290
161.1600     276
161.2400     307
161.3200     271
161.4000     310
161.4800     276
161.5600     257
161.6400     297
161.7200     248
161.8000     274
161.8800     325
161.9600     279
162.0400     279
162.1200     254
162.2000     289
162.2800     300
162.3600     290
162.4400     269
162.5200     290
162.6000     274
162.6800     250
162.7600     285
162.8400     288
162.9200     288
163.0000     266
163.0800     257
163.1600     283
163.2400     290
163.3200     252
163.4000     275
163.4800     285
163.5600     286
163.6400     266
163.7200     272
163.8000     259
163.8800     262
163.9600     287
164.0400     273
164.1200     285
164.2000     274
164.2800     294
164.3600     265
164.4400     272
164.5200     239
164.6000     303
164.6800     269
164.7600     266
164.8400     261
164.9200     284
165.0000     247
165.0800     298
165.1600     244
165.2400     301
165.3200     285
165.4000     263
165.4800     273
165.5600     296
165.6400     258
165.7200     241
165.8000     270
165.8800     260
165.9600     268
166.0400     270
166.1200     274
166.2000     245
166.2800     254
166.3600     280
166.4400     275
166.5200     258
166.6000     261
166.6800     235
166.7600     230
166.8400     267
166.9200     236
166.9600     272