File: XRD_Tool/XRD_Tool/bin/LDA_sample_name_56789_Psi-30_20180603-123053.txt
143.0000     243
143.0800     258
143.1600     247
143.2400     270
143.3200     248
143.4000     261
143.4800     280
143.5600     262
143.6400     278
143.7200     237
143.8000     282
143.8800     266
143.9600     272
144.0400     282
144.1200     279
144.2000     283
144.2800     252
144.3600     270
144.4400     272
144.5200     251
144.6000     259
144.6800     280
144.7600     263
144.8400     250
144.9200     288
145.0000     263
145.0800     238
145.1600     251
145.2400     259
145.3200     293
145.4000     223
145.4800     253
145.5600     277
145.6400     273
145.7200     268
145.8000     242
145.8800     284
145.9600     252
146.0400     266
146.1200     244
146.2000     270
146.2800     257
146.3600     268
146.4400     270
146.5200     270
146.6000     254
146.6800     256
146.7600     264
146.8400     269
146.9200     259
147.0000     251
147.0800     276
147.1600     259
147.2400     257
147.3200     247
147.4000     259
147.4800     231
147.5600     276
147.6400     295
147.7200     304
147.8000     279
147.8800     283
147.9600     310
148.0400     249
148.1200     285
148.2000     290
148.2800     287
148.3600     276
148.4400     295
148.5200     279
148.6000     275
148.6800     294
148.7600     279
148.8400     263
148.9200     279
149.0000     287
149.0800     279
149.1600     281
149.2400     306
149.3200     285
149.4000     288
149.4800     276
149.5600     278
149.6400     303
149.7200     290
149.8000     331
149.8800     311
149.9600     299
150.0400     296
150.1200     275
150.2000     282
150.2800     285
150.3600     325
150.4400     307
150.5200     301
150.6000     294
150.6800     286
150.7600     288
150.8400     339
150.9200     318
151.0000     338
151.0800     345
151.1600     316
151.2400     328
151.3200     333
151.4000     366
151.4800     380
151.5600     369
151.6400     334
151.7200     386
151.8000     360
151.8800     341
151.9600     348
152.0400     367
152.1200     404
152.2000     359
152.2800     383
152.3600     386
152.4400     426
152.5200     485
152.6000     472
152.6800     456
152.7600     479
152.8400     481
152.9200     495
153.0000     548
153.0800     540
153.1600     537
153.2400     538
153.3200     608
153.4000     566
153.4800     625
153.5600     651
153.6400     633
153.7200     702
153.8000     623
153.8800     664
153.9600     663
154.0400     691
154.1200     697
154.2000     745
154.2800     722
154.3600     678
154.4400     708
154.5200     705
154.6000     672
154.6800     694
154.7600     733
154.8400     678
154.9200     747
155.0000     705
155.0800     715
155.1600     690
155.2400     662
155.3200     653
155.4000     651
155.4800     666
155.5600     602
155.6400     629
155.7200     672
155.8000     522
155.8800     531
155.9600     526
156.0400     558
156.1200     531
156.2000     508
156.2800     531
156.3600     506
156.4400     484
156.5200     474
156.6000     450
156.6800     510
156.7600     440
156.8400     454
156.9200     404
157.0000     405
157.0800     429
157.1600     419
157.2400     397
157.3200     388
157.4000     376
157.4800     397
157.5600     396
157.6400     387
157.7200     407
157.8000     371
157.8800     346
157.9600     363
158.0400     384
158.1200     331
158.2000     379
158.2800     370
158.3600     300
158.4400     358
158.5200     330
158.6000     339
158.6800     318
158.7600     316
158.8400     355
158.9200     335
159.0000     336
159.0800     304
159.1600     295
159.2400     334
159.3200     312
159.4000     265
159.4800     313
159.5600     316
159.6400     303
159.7200     263
159.8000     277
159.8800     330
159.9600     319
160.0400     294
160.1200     309
160.2000     293
160.2800     241
160.3600     281
160.4400     277
160.5200     305
160.6000     272
160.6800     269
160.7600     275
160.8400     299
160.9200     289
161.0000     286
161.0800     275
161.1600     274
161.2400     267
161.3200     303
161.4000     280
161.4800     266
161.5600     269
161.6400     262
161.7200     286
161.8000     259
161.8800     280
161.9600     260
162.0400     280
162.1200     238
162.2000     274
162.2800     288
162.3600     272
162.4400     284
162.5200     274
162.6000     283
162.6800     261
162.7600     280
162.8400     288
162.9200     290
163.0000     270
163.0800     269
163.1600     260
163.2400     270
163.3200     263
163.4000     272
163.4800     267
163.5600     278
163.6400     266
163.7200     264
163.8000     263
163.8800     252
163.9600     281
164.0400     305
164.1200     289
164.2000     271
164.2800     255
164.3600     264
164.4400     313
164.5200     276
164.6000     272
164.6800     235
164.7600     286
164.8400     294
164.9200     262
165.0000     278
165.0800     279
165.1600     268
165.2400     260
165.3200     269
165.4000     248
165.4800     293
165.5600     288
165.6400     244
165.7200     256
165.8000     276
165.8800     275
165.9600     288
166.0400     254
166.1200     254
166.2000     261
166.2800     250
166.3600     278
166.4400     266
166.5200     249
166.6000     276
166.6800     257
166.7600     278
166.8400     232
166.9200     270
166.9600     239