File: XRD_Tool/log/20180621-log.txt
[2018-06-21 15:21:00 615]Log Start******************************************************

[2018-06-21 15:21:06 551] [UserLogin] login succeed!user=administrator,pwd=123456

[2018-06-21 15:21:06 732] [DeviceInit] Init Start
2F0D
[2018-06-21 15:21:40 804] UART Send: [/
]
0D0A433D
[2018-06-21 15:21:40 953] UART Recv: @1[
C=]
5246460D
[2018-06-21 15:21:42 499] UART Send: [RFF
]
5246460D0A2B2B3130310D0A433D
[2018-06-21 15:21:42 640] UART Recv: @1[RFF
++101
C=]
524B4D0D
[2018-06-21 15:21:47 945] UART Send: [RKM
]
524B4D0D30302E30300D200D30302E30300D0A433D
[2018-06-21 15:21:48 101] UART Recv: @1[RKM
00.00

00.00
C=]

[2018-06-21 15:21:52 188] [DeviceInit] warmup check=True

[2018-06-21 15:21:53 625] [DeviceInit] warmup confirm=False

[2018-06-21 15:21:53 625] [DeviceInit] warmup skip, GetDeviceZeroPoint
5041520D
[2018-06-21 15:21:55 469] UART Send: [PAR
]
5041520D0A4C574C33300D0A55504C37350D0A535045350D0A535450302E30320D0A494E54310D0A4D584E31300D0A4D5854310D0A4D5853302E3030350D0A4D4F44330D0A574156312E35343138340D0A54535A2034352E333530300D0A54445A2031392E333135300D0A0A433D
[2018-06-21 15:21:55 610] UART Recv: @1[PAR
LWL30
UPL75
SPE5
STP0.02
INT1
MXN10
MXT1
MXS0.005
MOD3
WAV1.54184
TSZ 45.3500
TDZ 19.3150

C=]
5041460D
[2018-06-21 15:21:56 531] UART Send: [PAF
]
5041460D
[2018-06-21 15:21:56 680] UART Recv: @1[PAF
]
0A5A54412D3030332E333634370D0A0A5A54422D3030312E313037390D0A0A5A54582D3033352E303030300D0A0A5A54592D3035302E383132350D0A0A5A545A2D3030352E303030300D0A0A5354503030302E303230300D0A0A494E543030312E303030300D0A0A535045303031320D0A0A433D
[2018-06-21 15:21:56 946] UART Recv: @1[
ZTA-003.3647

ZTB-001.1079

ZTX-035.0000

ZTY-050.8125

ZTZ-005.0000

STP000.0200

INT001.0000

SPE0012

C=]
534450310D
[2018-06-21 15:21:58 546] UART Send: [SDP1
]
534450310D
[2018-06-21 15:21:58 687] UART Recv: @1[SDP1
]
0A433D
[2018-06-21 15:21:58 827] UART Recv: @1[
C=]

[2018-06-21 15:21:58 827] [DeviceInit] Init Finish

[2018-06-21 15:22:01 170] [Parent] Menu Texture

[2018-06-21 15:23:06 662] [Parent] Menu Measure

[2018-06-21 15:23:06 724] [Measure] check 5 Axis=Unchecked

[2018-06-21 15:23:09 052] [Parent] Menu Texture

[2018-06-21 15:23:40 891] [Texture] Measure Start
2F0D
[2018-06-21 15:24:17 863] UART Send: [/
]
0D0A433D
[2018-06-21 15:24:17 957] UART Recv: @2[
C=]
4D4F44330D
[2018-06-21 15:24:47 009] UART Send: [MOD3
]
4D4F44330D0A4D4F44330D0A4D4F44330D0A433D
[2018-06-21 15:24:49 321] UART Recv: @2[MOD3
MOD3
MOD3
C=]
[2018-06-21 15:30:09 451]Log Start******************************************************

[2018-06-21 15:30:10 622] [UserLogin] login succeed!user=administrator,pwd=123456

[2018-06-21 15:30:10 732] [DeviceInit] Init Start
2F0D
[2018-06-21 15:30:12 825] UART Send: [/
]
0D0A433D
[2018-06-21 15:30:12 965] UART Recv: @1[
C=]
5246460D
[2018-06-21 15:30:14 049] UART Send: [RFF
]
5246460D0A2B2B3130310D0A433D
[2018-06-21 15:30:14 187] UART Recv: @1[RFF
++101
C=]
524B4D0D
[2018-06-21 15:30:14 952] UART Send: [RKM
]
524B4D0D30302E30300D200D30302E30300D0A433D
[2018-06-21 15:30:15 108] UART Recv: @1[RKM
00.00

00.00
C=]

[2018-06-21 15:30:17 298] [DeviceInit] Init Skip

[2018-06-21 15:30:18 735] [Parent] Menu Texture

[2018-06-21 15:30:31 748] [Parent] Menu Measure

[2018-06-21 15:30:31 795] [Measure] check 5 Axis=Unchecked

[2018-06-21 15:30:32 779] [Parent] Menu Texture

[2018-06-21 15:30:34 247] [Texture] Measure Start
2F0D
[2018-06-21 15:30:36 934] UART Send: [/
]
0D0A433D
[2018-06-21 15:30:37 028] UART Recv: @3[
C=]
53414E3135300D
[2018-06-21 15:30:41 730] UART Send: [SAN150
]
53414E3135300D
[2018-06-21 15:30:41 871] UART Recv: @3[SAN150
]
0A433D
[2018-06-21 15:30:51 197] UART Recv: @3[
C=]
[2018-06-21 15:31:47 516]Log Start******************************************************

[2018-06-21 15:31:48 770] [UserLogin] login succeed!user=administrator,pwd=123456

[2018-06-21 15:31:48 848] [DeviceInit] Init Start
2F0D
[2018-06-21 15:31:50 036] UART Send: [/
]
0D0A433D
[2018-06-21 15:31:50 176] UART Recv: @1[
C=]
5246460D
[2018-06-21 15:31:51 054] UART Send: [RFF
]
5246460D0A2B2B3130310D0A433D
[2018-06-21 15:31:51 175] UART Recv: @1[RFF
++101
C=]
524B4D0D
[2018-06-21 15:31:51 816] UART Send: [RKM
]
524B4D0D30302E30300D200D30302E30300D0A433D
[2018-06-21 15:31:51 956] UART Recv: @1[RKM
00.00

00.00
C=]

[2018-06-21 15:31:54 018] [DeviceInit] Init Skip

[2018-06-21 15:31:55 190] [Parent] Menu Texture

[2018-06-21 15:32:05 171] [Texture] Measure Start
2F0D
[2018-06-21 15:32:09 545] UART Send: [/
]
0D0A433D
[2018-06-21 15:32:09 638] UART Recv: @3[
C=]
[2018-06-21 15:37:11 734]Log Start******************************************************

[2018-06-21 15:37:12 890] [UserLogin] login succeed!user=administrator,pwd=123456

[2018-06-21 15:37:12 999] [DeviceInit] Init Start
2F0D
[2018-06-21 15:37:14 858] UART Send: [/
]
0D0A433D
[2018-06-21 15:37:15 014] UART Recv: @1[
C=]
5246460D
[2018-06-21 15:37:16 670] UART Send: [RFF
]
5246460D0A2B2B3130310D0A433D
[2018-06-21 15:37:16 811] UART Recv: @1[RFF
++101
C=]
524B4D0D
[2018-06-21 15:37:17 248] UART Send: [RKM
]
524B4D0D30302E30300D200D30302E30300D0A433D
[2018-06-21 15:37:17 388] UART Recv: @1[RKM
00.00

00.00
C=]

[2018-06-21 15:37:20 232] [DeviceInit] Init Skip

[2018-06-21 15:37:22 044] [Parent] Menu Texture

[2018-06-21 15:37:23 825] [Parent] Menu Setup

[2018-06-21 15:37:25 184] [Parent] Menu Measure

[2018-06-21 15:37:25 230] [Measure] check 5 Axis=Unchecked

[2018-06-21 15:37:25 983] [Parent] Menu Texture
[2018-06-21 15:41:15 012]Log Start******************************************************

[2018-06-21 15:41:16 558] [UserLogin] login succeed!user=administrator,pwd=123456

[2018-06-21 15:41:16 636] [DeviceInit] Init Start
2F0D
[2018-06-21 15:41:19 432] UART Send: [/
]
0D0A433D
[2018-06-21 15:41:19 572] UART Recv: @1[
C=]
5246460D
[2018-06-21 15:41:20 931] UART Send: [RFF
]
5246460D0A2B2B3130310D0A433D
[2018-06-21 15:41:21 072] UART Recv: @1[RFF
++101
C=]
524B4D0D
[2018-06-21 15:41:21 759] UART Send: [RKM
]
524B4D0D30302E30300D200D30302E30300D0A433D
[2018-06-21 15:41:21 900] UART Recv: @1[RKM
00.00

00.00
C=]

[2018-06-21 15:41:23 790] [DeviceInit] Init Skip

[2018-06-21 15:41:25 227] [Parent] Menu Setup

[2018-06-21 15:41:25 836] [Parent] Menu Texture

[2018-06-21 15:41:27 352] [Parent] Menu Measure

[2018-06-21 15:41:27 414] [Measure] check 5 Axis=Unchecked

[2018-06-21 15:41:28 367] [Parent] Menu Texture

[2018-06-21 15:41:45 785] [Texture] Measure Start
2F0D
[2018-06-21 15:41:47 831] UART Send: [/
]
0D0A433D
[2018-06-21 15:41:47 925] UART Recv: @3[
C=]
53414E3134350D
[2018-06-21 15:41:57 467] UART Send: [SAN145
]
53414E3134350D
[2018-06-21 15:41:57 623] UART Recv: @3[SAN145
]
0A433D
[2018-06-21 15:41:58 857] UART Recv: @3[
C=]
534B4D32352033300D
[2018-06-21 15:42:14 049] UART Send: [SKM25 30
]
534B4D32352033300D
[2018-06-21 15:42:14 127] UART Recv: @3[SKM25 30
]
0A433D
[2018-06-21 15:42:28 045] UART Recv: @3[
C=]
524B4D0D
[2018-06-21 15:43:10 823] UART Send: [RKM
]

[2018-06-21 15:43:10 823] [Parent] closing
524B4D0D32342E39330D200D33302E30310D0A433D
[2018-06-21 15:43:10 854] UART Recv: @3[RKM
24.93

30.01
C=]
494E54310D
[2018-06-21 15:43:36 598] UART Send: [INT1
]
494E54310D0A494E54310D0A494E54310D0A433D
[2018-06-21 15:43:40 878] UART Recv: @3[INT1
INT1
INT1
C=]

[2018-06-21 15:43:47 955] [Parent] closing
535045350D
[2018-06-21 15:44:07 878] UART Send: [SPE5
]
535045350D0A535045350D0A535045350D0A433D
[2018-06-21 15:44:08 956] UART Recv: @3[SPE5
SPE5
SPE5
C=]
53484F0D
[2018-06-21 15:44:56 393] UART Send: [SHO
]
53484F0D0A433D
[2018-06-21 15:44:56 550] UART Recv: @3[SHO
C=]
535441300D
[2018-06-21 15:45:17 789] UART Send: [STA0
]
535441300D0A433D202020302E303030300D0A433D
[2018-06-21 15:45:21 070] UART Recv: @3[STA0
C=   0.0000
C=]
535442300D
[2018-06-21 15:45:26 256] UART Send: [STB0
]
535442300D0A433D202020302E303030300D0A433D
[2018-06-21 15:45:26 397] UART Recv: @3[STB0
C=   0.0000
C=]
4353423336300D
[2018-06-21 15:45:38 082] UART Send: [CSB360
]

[2018-06-21 15:45:38 082] [Texture] totalcount=72
4353423336300D
[2018-06-21 15:45:38 238] UART Recv: @3[CSB360
]
0A23202020302E303030302020202020203630300D
[2018-06-21 15:45:39 253] UART Recv: @3[
#   0.0000      600
]
0A23202020352E303030302020202020203634380D0A23202031302E303030302020202020203632370D
[2018-06-21 15:45:41 241] UART Recv: @3[
#   5.0000      648
#  10.0000      627
]
0A23202031352E303030302020202020203636310D0A23202032302E303030302020202020203635380D
[2018-06-21 15:45:43 678] UART Recv: @3[
#  15.0000      661
#  20.0000      658
]
0A23202032352E303030302020202020203635360D0A23202033302E303030302020202020203633350D
[2018-06-21 15:45:45 505] UART Recv: @3[
#  25.0000      656
#  30.0000      635
]
0A23202033352E303030302020202020203632380D0A23202034302E303030302020202020203633310D0A23202034352E303030302020202020203631390D
[2018-06-21 15:45:48 880] UART Recv: @3[
#  35.0000      628
#  40.0000      631
#  45.0000      619
]
0A23202035302E303030302020202020203633380D0A23202035352E303030302020202020203632300D0A23202036302E303030302020202020203637310D0A23202036352E303030302020202020203636370D0A23202037302E303030302020202020203631390D0A23202037352E303030302020202020203631350D0A23202038302E303030302020202020203631320D0A23202038352E303030302020202020203633310D0A23202039302E303030302020202020203637300D
[2018-06-21 15:45:57 497] UART Recv: @3[
#  50.0000      638
#  55.0000      620
#  60.0000      671
#  65.0000      667
#  70.0000      619
#  75.0000      615
#  80.0000      612
#  85.0000      631
#  90.0000      670
]
0A23202039352E303030302020202020203635320D0A23203130302E303030302020202020203539310D
[2018-06-21 15:45:59 369] UART Recv: @3[
#  95.0000      652
# 100.0000      591
]
0A23203130352E303030302020202020203633330D
[2018-06-21 15:46:00 496] UART Recv: @3[
# 105.0000      633
]
0A23203131302E303030302020202020203633360D0A23203131352E303030302020202020203633360D0A23203132302E303030302020202020203632350D0A23203132352E303030302020202020203637360D0A23203133302E303030302020202020203633340D0A23203133352E303030302020202020203631330D0A23203134302E303030302020202020203633310D0A23203134352E303030302020202020203637340D0A23203135302E303030302020202020203634390D
[2018-06-21 15:46:09 416] UART Recv: @3[
# 110.0000      636
# 115.0000      636
# 120.0000      625
# 125.0000      676
# 130.0000      634
# 135.0000      613
# 140.0000      631
# 145.0000      674
# 150.0000      649
]
0A23203135352E303030302020202020203637350D0A23203136302E303030302020202020203632350D0A23203136352E303030302020202020203637390D
[2018-06-21 15:46:12 790] UART Recv: @3[
# 155.0000      675
# 160.0000      625
# 165.0000      679
]
0A23203137302E303030302020202020203636330D0A23203137352E303030302020202020203631320D0A23203138302E303030302020202020203635330D
[2018-06-21 15:46:15 493] UART Recv: @3[
# 170.0000      663
# 175.0000      612
# 180.0000      653
]

[2018-06-21 15:46:15 493] [Texture] analyzecount=0recvcount=0
0A23203138352E303030302020202020203635360D0A23203139302E303030302020202020203539390D0A23203139352E303030302020202020203635310D0A23203230302E303030302020202020203631330D0A23203230352E303030302020202020203633390D
[2018-06-21 15:46:20 695] UART Recv: @3[
# 185.0000      656
# 190.0000      599
# 195.0000      651
# 200.0000      613
# 205.0000      639
]
0A23203231302E303030302020202020203634340D0A23203231352E303030302020202020203639350D0A23203232302E303030302020202020203635300D0A23203232352E303030302020202020203539380D0A23203233302E303030302020202020203637320D0A23203233352E303030302020202020203631330D0A23203234302E303030302020202020203637310D0A23203234352E303030302020202020203634350D0A23203235302E303030302020202020203639300D0A23203235352E303030302020202020203630350D0A23203236302E303030302020202020203636350D0A23203236352E303030302020202020203631350D0A23203237302E303030302020202020203634390D0A23203237352E303030302020202020203632390D0A23203238302E303030302020202020203631360D0A23203238352E303030302020202020203631390D0A23203239302E303030302020202020203634300D0A23203239352E303030302020202020203635340D0A23203330302E303030302020202020203633380D0A23203330352E303030302020202020203636310D0A23203331302E303030302020202020203632380D0A23203331352E303030302020202020203634350D0A23203332302E303030302020202020203637320D0A23203332352E303030302020202020203635310D0A23203333302E303030302020202020203638360D0A23203333352E303030302020202020203634340D0A23203334302E303030302020202020203634330D0A23203334352E303030302020202020203632330D0A23203335302E303030302020202020203636320D0A23203335352E303030302020202020203633320D0A46697665422D4F4B0D0A433D
[2018-06-21 15:46:54 020] UART Recv: @3[
# 210.0000      644
# 215.0000      695
# 220.0000      650
# 225.0000      598
# 230.0000      672
# 235.0000      613
# 240.0000      671
# 245.0000      645
# 250.0000      690
# 255.0000      605
# 260.0000      665
# 265.0000      615
# 270.0000      649
# 275.0000      629
# 280.0000      616
# 285.0000      619
# 290.0000      640
# 295.0000      654
# 300.0000      638
# 305.0000      661
# 310.0000      628
# 315.0000      645
# 320.0000      672
# 325.0000      651
# 330.0000      686
# 335.0000      644
# 340.0000      643
# 345.0000      623
# 350.0000      662
# 355.0000      632
FiveB-OK
C=]

[2018-06-21 15:46:55 519] [Texture] analyzecount=0recvcount=0

[2018-06-21 15:46:58 289] [Texture] analyzecount=0recvcount=0

[2018-06-21 15:47:00 114] [Texture] analyzecount=0recvcount=0

[2018-06-21 15:47:01 145] [Texture] analyzecount=0recvcount=0

[2018-06-21 15:47:01 739] [Texture] analyzecount=0recvcount=0

[2018-06-21 15:47:04 410] [Texture] analyzecount=0recvcount=0

[2018-06-21 15:47:04 410] [Texture] analyzecount=0recvcount=0

[2018-06-21 15:47:04 410] [Texture] analyzecount=0recvcount=0

[2018-06-21 15:47:04 410] [Texture] analyzecount=0recvcount=0

[2018-06-21 15:47:04 410] [Texture] analyzecount=0recvcount=0

[2018-06-21 15:47:04 410] [Texture] analyzecount=0recvcount=0

[2018-06-21 15:47:04 410] [Texture] analyzecount=0recvcount=0
[2018-06-21 15:55:30 856]Log Start******************************************************

[2018-06-21 15:55:33 933] [UserLogin] login succeed!user=administrator,pwd=123456

[2018-06-21 15:55:34 011] [DeviceInit] Init faild, Uart Port not open

[2018-06-21 15:55:35 745] [DeviceInit] Init Skip
[2018-06-21 15:55:46 234]Log Start******************************************************

[2018-06-21 15:55:49 842] [UserLogin] login succeed!user=administrator,pwd=123456

[2018-06-21 15:55:49 905] [DeviceInit] Init Start
2F0D
[2018-06-21 15:55:51 623] UART Send: [/
]
0D0A433D
[2018-06-21 15:55:51 764] UART Recv: @1[
C=]
5246460D
[2018-06-21 15:55:52 639] UART Send: [RFF
]
5246460D0A2B2B3130310D0A433D
[2018-06-21 15:55:52 779] UART Recv: @1[RFF
++101
C=]
524B4D0D
[2018-06-21 15:55:53 436] UART Send: [RKM
]
524B4D0D30302E30300D200D30302E30300D0A433D
[2018-06-21 15:55:53 576] UART Recv: @1[RKM
00.00

00.00
C=]

[2018-06-21 15:55:55 842] [DeviceInit] Init Skip

[2018-06-21 15:55:57 122] [Parent] Menu Texture

[2018-06-21 15:56:00 679] [Texture] Measure Start
2F0D
[2018-06-21 15:56:02 186] UART Send: [/
]
0D0A433D
[2018-06-21 15:56:02 257] UART Recv: @3[
C=]
53414E3134350D
[2018-06-21 15:56:03 060] UART Send: [SAN145
]
53414E3134350D0A433D
[2018-06-21 15:56:03 200] UART Recv: @3[SAN145
C=]
534B4D32352033300D
[2018-06-21 15:56:04 278] UART Send: [SKM25 30
]
534B4D32352033300D
[2018-06-21 15:56:04 419] UART Recv: @3[SKM25 30
]
0A433D
[2018-06-21 15:56:18 208] UART Recv: @3[
C=]
524B4D0D
[2018-06-21 15:56:19 809] UART Send: [RKM
]

[2018-06-21 15:56:19 809] [Parent] closing
524B4D0D
[2018-06-21 15:56:19 903] UART Recv: @3[RKM
]
0D200D0D0A433D
[2018-06-21 15:56:21 215] UART Recv: @3[

C=]

[2018-06-21 15:56:21 215] [Parent] closing
[2018-06-21 15:56:56 867]Log Start******************************************************

[2018-06-21 15:56:57 851] [UserLogin] login succeed!user=administrator,pwd=123456

[2018-06-21 15:56:57 945] [DeviceInit] Init Start
2F0D
[2018-06-21 15:56:59 679] UART Send: [/
]
0D0A433D
[2018-06-21 15:56:59 835] UART Recv: @1[
C=]
5246460D
[2018-06-21 15:57:00 647] UART Send: [RFF
]
5246460D0A2B2B3130310D0A433D
[2018-06-21 15:57:00 782] UART Recv: @1[RFF
++101
C=]
524B4D0D
[2018-06-21 15:57:01 440] UART Send: [RKM
]
524B4D0D32342E39330D200D33302E30310D0A433D
[2018-06-21 15:57:01 580] UART Recv: @1[RKM
24.93

30.01
C=]

[2018-06-21 15:57:03 736] [DeviceInit] Init Skip

[2018-06-21 15:57:05 001] [Parent] Menu Texture

[2018-06-21 15:57:06 876] [Texture] Measure Start
2F0D
[2018-06-21 15:57:08 844] UART Send: [/
]
0D0A433D
[2018-06-21 15:57:08 931] UART Recv: @3[
C=]
53414E3134350D
[2018-06-21 15:57:09 806] UART Send: [SAN145
]
53414E3134350D0A433D
[2018-06-21 15:57:09 946] UART Recv: @3[SAN145
C=]
534B4D32352033300D
[2018-06-21 15:57:11 087] UART Send: [SKM25 30
]
534B4D32352033300D
[2018-06-21 15:57:11 227] UART Recv: @3[SKM25 30
]
0A433D
[2018-06-21 15:57:14 461] UART Recv: @3[
C=]
524B4D0D
[2018-06-21 15:57:15 735] UART Send: [RKM
]

[2018-06-21 15:57:15 735] [Parent] closing
524B4D0D32342E39350D200D33302E30320D0A433D
[2018-06-21 15:57:15 829] UART Recv: @3[RKM
24.95

30.02
C=]
494E54310D
[2018-06-21 15:57:17 141] UART Send: [INT1
]

[2018-06-21 15:57:17 141] [Parent] closing
494E54310D0A494E54310D0A494E54310D0A433D
[2018-06-21 15:57:17 282] UART Recv: @3[INT1
INT1
INT1
C=]
535045350D
[2018-06-21 15:57:18 719] UART Send: [SPE5
]
[...]

[2018-06-21 19:59:23 419] Chart RealTime update[start @44rowsCount=45]

[2018-06-21 19:59:23 419] Binding[10 220 601]
0A23203232352E303030302020202020203632310D
[2018-06-21 19:59:24 425] UART Recv: @3[
# 225.0000      621
]

[2018-06-21 19:59:24 425] [Texture] analyzecount=1totalrecvcount=46

[2018-06-21 19:59:24 425] Chart RealTime update[start @45rowsCount=46]

[2018-06-21 19:59:24 425] Binding[10 225 621]
0A23203233302E303030302020202020203635300D
[2018-06-21 19:59:25 415] UART Recv: @3[
# 230.0000      650
]

[2018-06-21 19:59:25 415] [Texture] analyzecount=1totalrecvcount=47

[2018-06-21 19:59:25 415] Chart RealTime update[start @46rowsCount=47]

[2018-06-21 19:59:25 415] Binding[10 230 650]
0A23203233352E303030302020202020203632350D
[2018-06-21 19:59:26 422] UART Recv: @3[
# 235.0000      625
]

[2018-06-21 19:59:26 422] [Texture] analyzecount=1totalrecvcount=48

[2018-06-21 19:59:26 422] Chart RealTime update[start @47rowsCount=48]

[2018-06-21 19:59:26 422] Binding[10 235 625]
0A23203234302E303030302020202020203630340D
[2018-06-21 19:59:27 427] UART Recv: @3[
# 240.0000      604
]

[2018-06-21 19:59:27 427] [Texture] analyzecount=1totalrecvcount=49

[2018-06-21 19:59:27 427] Chart RealTime update[start @48rowsCount=49]

[2018-06-21 19:59:27 428] Binding[10 240 604]
0A23203234352E303030302020202020203630340D
[2018-06-21 19:59:28 419] UART Recv: @3[
# 245.0000      604
]

[2018-06-21 19:59:28 419] [Texture] analyzecount=1totalrecvcount=50

[2018-06-21 19:59:28 419] Chart RealTime update[start @49rowsCount=50]

[2018-06-21 19:59:28 419] Binding[10 245 604]
0A23203235302E303030302020202020203635340D
[2018-06-21 19:59:29 423] UART Recv: @3[
# 250.0000      654
]

[2018-06-21 19:59:29 424] [Texture] analyzecount=1totalrecvcount=51

[2018-06-21 19:59:29 424] Chart RealTime update[start @50rowsCount=51]

[2018-06-21 19:59:29 424] Binding[10 250 654]
0A23203235352E303030302020202020203630380D
[2018-06-21 19:59:30 429] UART Recv: @3[
# 255.0000      608
]

[2018-06-21 19:59:30 429] [Texture] analyzecount=1totalrecvcount=52

[2018-06-21 19:59:30 429] Chart RealTime update[start @51rowsCount=52]

[2018-06-21 19:59:30 429] Binding[10 255 608]
0A23203236302E303030302020202020203633380D
[2018-06-21 19:59:31 419] UART Recv: @3[
# 260.0000      638
]

[2018-06-21 19:59:31 419] [Texture] analyzecount=1totalrecvcount=53

[2018-06-21 19:59:31 419] Chart RealTime update[start @52rowsCount=53]

[2018-06-21 19:59:31 419] Binding[10 260 638]
0A23203236352E303030302020202020203632390D
[2018-06-21 19:59:32 425] UART Recv: @3[
# 265.0000      629
]

[2018-06-21 19:59:32 425] [Texture] analyzecount=1totalrecvcount=54

[2018-06-21 19:59:32 425] Chart RealTime update[start @53rowsCount=54]

[2018-06-21 19:59:32 425] Binding[10 265 629]
0A23203237302E303030302020202020203634300D
[2018-06-21 19:59:33 414] UART Recv: @3[
# 270.0000      640
]

[2018-06-21 19:59:33 414] [Texture] analyzecount=1totalrecvcount=55

[2018-06-21 19:59:33 414] Chart RealTime update[start @54rowsCount=55]

[2018-06-21 19:59:33 414] Binding[10 270 640]
0A23203237352E303030302020202020203633330D
[2018-06-21 19:59:34 420] UART Recv: @3[
# 275.0000      633
]

[2018-06-21 19:59:34 420] [Texture] analyzecount=1totalrecvcount=56

[2018-06-21 19:59:34 420] Chart RealTime update[start @55rowsCount=56]

[2018-06-21 19:59:34 420] Binding[10 275 633]
0A23203238302E303030302020202020203635370D
[2018-06-21 19:59:35 427] UART Recv: @3[
# 280.0000      657
]

[2018-06-21 19:59:35 427] [Texture] analyzecount=1totalrecvcount=57

[2018-06-21 19:59:35 427] Chart RealTime update[start @56rowsCount=57]

[2018-06-21 19:59:35 427] Binding[10 280 657]
0A23203238352E303030302020202020203634310D
[2018-06-21 19:59:36 416] UART Recv: @3[
# 285.0000      641
]

[2018-06-21 19:59:36 416] [Texture] analyzecount=1totalrecvcount=58

[2018-06-21 19:59:36 416] Chart RealTime update[start @57rowsCount=58]

[2018-06-21 19:59:36 416] Binding[10 285 641]
0A23203239302E303030302020202020203630310D
[2018-06-21 19:59:37 422] UART Recv: @3[
# 290.0000      601
]

[2018-06-21 19:59:37 422] [Texture] analyzecount=1totalrecvcount=59

[2018-06-21 19:59:37 422] Chart RealTime update[start @58rowsCount=59]

[2018-06-21 19:59:37 422] Binding[10 290 601]
0A23203239352E303030302020202020203635390D
[2018-06-21 19:59:38 428] UART Recv: @3[
# 295.0000      659
]

[2018-06-21 19:59:38 428] [Texture] analyzecount=1totalrecvcount=60

[2018-06-21 19:59:38 428] Chart RealTime update[start @59rowsCount=60]

[2018-06-21 19:59:38 428] Binding[10 295 659]
0A23203330302E303030302020202020203638320D
[2018-06-21 19:59:39 418] UART Recv: @3[
# 300.0000      682
]

[2018-06-21 19:59:39 418] [Texture] analyzecount=1totalrecvcount=61

[2018-06-21 19:59:39 418] Chart RealTime update[start @60rowsCount=61]

[2018-06-21 19:59:39 418] Binding[10 300 682]
0A23203330352E303030302020202020203631370D
[2018-06-21 19:59:40 424] UART Recv: @3[
# 305.0000      617
]

[2018-06-21 19:59:40 424] [Texture] analyzecount=1totalrecvcount=62

[2018-06-21 19:59:40 424] Chart RealTime update[start @61rowsCount=62]

[2018-06-21 19:59:40 424] Binding[10 305 617]
0A23203331302E303030302020202020203634310D
[2018-06-21 19:59:41 414] UART Recv: @3[
# 310.0000      641
]

[2018-06-21 19:59:41 414] [Texture] analyzecount=1totalrecvcount=63

[2018-06-21 19:59:41 414] Chart RealTime update[start @62rowsCount=63]

[2018-06-21 19:59:41 414] Binding[10 310 641]
0A23203331352E303030302020202020203537330D
[2018-06-21 19:59:42 419] UART Recv: @3[
# 315.0000      573
]

[2018-06-21 19:59:42 419] [Texture] analyzecount=1totalrecvcount=64

[2018-06-21 19:59:42 419] Chart RealTime update[start @63rowsCount=64]

[2018-06-21 19:59:42 419] Binding[10 315 573]
0A23203332302E303030302020202020203634340D
[2018-06-21 19:59:43 426] UART Recv: @3[
# 320.0000      644
]

[2018-06-21 19:59:43 426] [Texture] analyzecount=1totalrecvcount=65

[2018-06-21 19:59:43 426] Chart RealTime update[start @64rowsCount=65]

[2018-06-21 19:59:43 426] Binding[10 320 644]
0A23203332352E303030302020202020203633380D
[2018-06-21 19:59:44 416] UART Recv: @3[
# 325.0000      638
]

[2018-06-21 19:59:44 416] [Texture] analyzecount=1totalrecvcount=66

[2018-06-21 19:59:44 416] Chart RealTime update[start @65rowsCount=66]

[2018-06-21 19:59:44 416] Binding[10 325 638]
0A23203333302E303030302020202020203636300D
[2018-06-21 19:59:45 422] UART Recv: @3[
# 330.0000      660
]

[2018-06-21 19:59:45 422] [Texture] analyzecount=1totalrecvcount=67

[2018-06-21 19:59:45 422] Chart RealTime update[start @66rowsCount=67]

[2018-06-21 19:59:45 422] Binding[10 330 660]
0A23203333352E303030302020202020203634370D
[2018-06-21 19:59:46 427] UART Recv: @3[
# 335.0000      647
]

[2018-06-21 19:59:46 427] [Texture] analyzecount=1totalrecvcount=68

[2018-06-21 19:59:46 427] Chart RealTime update[start @67rowsCount=68]

[2018-06-21 19:59:46 427] Binding[10 335 647]
0A23203334302E303030302020202020203637340D
[2018-06-21 19:59:47 417] UART Recv: @3[
# 340.0000      674
]

[2018-06-21 19:59:47 417] [Texture] analyzecount=1totalrecvcount=69

[2018-06-21 19:59:47 417] Chart RealTime update[start @68rowsCount=69]

[2018-06-21 19:59:47 417] Binding[10 340 674]
0A23203334352E303030302020202020203631340D
[2018-06-21 19:59:48 423] UART Recv: @3[
# 345.0000      614
]

[2018-06-21 19:59:48 423] [Texture] analyzecount=1totalrecvcount=70

[2018-06-21 19:59:48 423] Chart RealTime update[start @69rowsCount=70]

[2018-06-21 19:59:48 423] Binding[10 345 614]
0A23203335302E303030302020202020203630320D
[2018-06-21 19:59:49 429] UART Recv: @3[
# 350.0000      602
]

[2018-06-21 19:59:49 429] [Texture] analyzecount=1totalrecvcount=71

[2018-06-21 19:59:49 429] Chart RealTime update[start @70rowsCount=71]

[2018-06-21 19:59:49 429] Binding[10 350 602]
0A23203335352E303030302020202020203635340D0A46697665422D4F4B0D0A433D
[2018-06-21 19:59:50 435] UART Recv: @3[
# 355.0000      654
FiveB-OK
C=]

[2018-06-21 19:59:50 435] [Texture] analyzecount=1totalrecvcount=72

[2018-06-21 19:59:50 436] Chart RealTime update[start @71rowsCount=72]

[2018-06-21 19:59:50 436] Binding[10 355 654]
5348430D
[2018-06-21 19:59:54 171] UART Recv: @3[SHC
]
5348430D
[2018-06-21 19:59:54 207] UART Send: [SHC
]
0A433D
[2018-06-21 19:59:54 315] UART Recv: @3[
C=]
534B4D3020300D
[2018-06-21 19:59:54 316] UART Send: [SKM0 0
]
534B4D3020300D
[2018-06-21 19:59:54 442] UART Recv: @3[SKM0 0
]
0A433D
[2018-06-21 19:59:56 151] UART Recv: @3[
C=]

[2018-06-21 19:59:56 214] [Parent] voltage update

[2018-06-21 20:03:06 311] [Parent] closing
[2018-06-21 20:03:06 311]Log End******************************************************