File: XRD_Tool/log/20180528-log_2.txt
[2018-05-28 02:31:21 966] UART Recv: @2[
 153.4400      285
 153.4600      292
]

0A203135332E343430302020202020203238350D0A203135332E343630302020202020203239320D
[2018-05-28 02:31:22 086] UART Recv: @2[
 153.4800      275
 153.5000      268
 153.5200      291
]

0A203135332E343830302020202020203237350D0A203135332E353030302020202020203236380D0A203135332E353230302020202020203239310D
[2018-05-28 02:31:22 246] UART Recv: @2[
 153.5400      305
 153.5600      324
]

0A203135332E353430302020202020203330350D0A203135332E353630302020202020203332340D
[2018-05-28 02:31:22 375] UART Recv: @2[
 153.5800      308
 153.6000      314
]

0A203135332E353830302020202020203330380D0A203135332E363030302020202020203331340D
[2018-05-28 02:31:22 503] UART Recv: @2[
 153.6200      279
 153.6400      304
]

0A203135332E363230302020202020203237390D0A203135332E363430302020202020203330340D
[2018-05-28 02:31:22 630] UART Recv: @2[
 153.6600      346
 153.6800      313
]

0A203135332E363630302020202020203334360D0A203135332E363830302020202020203331330D
[2018-05-28 02:31:22 758] CountDown Run[27,85]

[2018-05-28 02:31:22 886] UART Recv: @2[
 153.7400      322
 153.7600      292
]

0A203135332E373430302020202020203332320D0A203135332E373630302020202020203239320D
[2018-05-28 02:31:23 014] UART Recv: @2[
 153.7800      365
 153.8000      352
]

0A203135332E373830302020202020203336350D0A203135332E383030302020202020203335320D
[2018-05-28 02:31:23 142] UART Recv: @2[
 153.8200      320
 153.8400      379
]

0A203135332E383230302020202020203332300D0A203135332E383430302020202020203337390D
[2018-05-28 02:31:23 270] UART Recv: @2[
 153.8600      333
 153.8800      366
]

0A203135332E383630302020202020203333330D0A203135332E383830302020202020203336360D
[2018-05-28 02:31:23 398] UART Recv: @2[
 153.9000      394
 153.9200      362
]

0A203135332E393030302020202020203339340D0A203135332E393230302020202020203336320D
[2018-05-28 02:31:23 542] UART Recv: @2[
 153.9400      360
 153.9600      376
]

0A203135332E393430302020202020203336300D0A203135332E393630302020202020203337360D
[2018-05-28 02:31:23 670] UART Recv: @2[
 153.9800      414
 154.0000      392
]

0A203135332E393830302020202020203431340D0A203135342E303030302020202020203339320D
[2018-05-28 02:31:23 773] CountDown Run[28,85]

[2018-05-28 02:31:23 797] UART Recv: @2[
 154.0200      398
 154.0400      432
]

0A203135342E303230302020202020203339380D0A203135342E303430302020202020203433320D
[2018-05-28 02:31:23 926] UART Recv: @2[
 154.0600      419
 154.0800      449
]

0A203135342E303630302020202020203431390D0A203135342E303830302020202020203434390D
[2018-05-28 02:31:24 053] UART Recv: @2[
 154.1000      393
 154.1200      423
]

0A203135342E313030302020202020203339330D0A203135342E313230302020202020203432330D
[2018-05-28 02:31:24 181] UART Recv: @2[
 154.1400      432
 154.1600      424
]

0A203135342E313430302020202020203433320D0A203135342E313630302020202020203432340D
[2018-05-28 02:31:24 336] UART Recv: @2[
 154.1800      448
 154.2000      453
 154.2200      423
]

0A203135342E313830302020202020203434380D0A203135342E323030302020202020203435330D0A203135342E323230302020202020203432330D
[2018-05-28 02:31:24 501] UART Recv: @2[
 154.2400      459
 154.2600      450
]

0A203135342E323430302020202020203435390D0A203135342E323630302020202020203435300D
[2018-05-28 02:31:24 629] UART Recv: @2[
 154.2800      435
 154.3000      456
]

0A203135342E323830302020202020203433350D0A203135342E333030302020202020203435360D
[2018-05-28 02:31:24 773] UART Recv: @2[
 154.3200      486
 154.3400      439
]

0A203135342E333230302020202020203438360D0A203135342E333430302020202020203433390D
[2018-05-28 02:31:24 807] CountDown Run[29,85]

[2018-05-28 02:31:24 901] UART Recv: @2[
 154.3600      467
 154.3800      476
]

0A203135342E333630302020202020203436370D0A203135342E333830302020202020203437360D
[2018-05-28 02:31:25 029] UART Recv: @2[
 154.4000      490
 154.4200      467
]

0A203135342E343030302020202020203439300D0A203135342E343230302020202020203436370D
[2018-05-28 02:31:25 158] UART Recv: @2[
 154.4400      454
 154.4600      492
]

0A203135342E343430302020202020203435340D0A203135342E343630302020202020203439320D
[2018-05-28 02:31:25 285] UART Recv: @2[
 154.4800      472
 154.5000      517
]

0A203135342E343830302020202020203437320D0A203135342E353030302020202020203531370D
[2018-05-28 02:31:25 412] UART Recv: @2[
 154.5200      517
 154.5400      459
]

0A203135342E353230302020202020203531370D0A203135342E353430302020202020203435390D
[2018-05-28 02:31:25 540] UART Recv: @2[
 154.5600      512
 154.5800      465
]

0A203135342E353630302020202020203531320D0A203135342E353830302020202020203436350D
[2018-05-28 02:31:25 668] UART Recv: @2[
 154.6000      459
 154.6200      500
]

0A203135342E363030302020202020203435390D0A203135342E363230302020202020203530300D
[2018-05-28 02:31:25 796] UART Recv: @2[
 154.6400      492
 154.6600      492
]

0A203135342E363430302020202020203439320D0A203135342E363630302020202020203439320D
[2018-05-28 02:31:25 829] CountDown Run[30,85]

[2018-05-28 02:31:25 940] UART Recv: @2[
 154.6800      480
 154.7000      489
]

0A203135342E363830302020202020203438300D0A203135342E373030302020202020203438390D
[2018-05-28 02:31:26 069] UART Recv: @2[
 154.7200      464
 154.7400      487
]

0A203135342E373230302020202020203436340D0A203135342E373430302020202020203438370D
[2018-05-28 02:31:26 201] UART Recv: @2[
 154.7600      515
 154.7800      479
]

0A203135342E373630302020202020203531350D0A203135342E373830302020202020203437390D
[2018-05-28 02:31:26 325] UART Recv: @2[
 154.8000      495
 154.8200      511
]

0A203135342E383030302020202020203439350D0A203135342E383230302020202020203531310D
[2018-05-28 02:31:26 452] UART Recv: @2[
 154.8400      481
 154.8600      458
]

0A203135342E383430302020202020203438310D0A203135342E383630302020202020203435380D
[2018-05-28 02:31:26 580] UART Recv: @2[
 154.8800      493
 154.9000      447
]

0A203135342E383830302020202020203439330D0A203135342E393030302020202020203434370D
[2018-05-28 02:31:26 708] UART Recv: @2[
 154.9200      476
 154.9400      500
]

0A203135342E393230302020202020203437360D0A203135342E393430302020202020203530300D
[2018-05-28 02:31:26 815] CountDown Run[31,85]

[2018-05-28 02:31:26 836] UART Recv: @2[
 154.9600      472
 154.9800      507
]

0A203135342E393630302020202020203437320D0A203135342E393830302020202020203530370D
[2018-05-28 02:31:26 967] UART Recv: @2[
 155.0000      461
C=]

0A203135352E303030302020202020203436310D0A433D
[2018-05-28 02:31:27 863] Python Cmd: [python D:\PCTool\XRD_Tool_20180527_2100\XRD_Tool\XRD_Tool\bin\Debug\CurveFittingPearson_20180526.py 1 D:\PCTool\XRD_Tool\XRD_Tool\bin\Debug\SDD_sample_name_001_Psi-0_20180528-023054.txt 0 > D:\PCTool\XRD_Tool_20180527_2100\XRD_Tool\XRD_Tool\bin\Debug\CalcResult.py]

[2018-05-28 02:31:27 863] Python Result: [154.61,501.816,2.48892,0.549578,2.48892]

[2018-05-28 02:31:27 863] UART Send: [PAT15
]

50415431350D
[2018-05-28 02:31:27 864] CountDown Run[32,85]

[2018-05-28 02:31:27 988] UART Recv: @2[PAT15
C=

C=]

50415431350D0A433D0A0D0A433D
[2018-05-28 02:31:27 990] UART Send: [SAT145
]

5341543134350D
[2018-05-28 02:31:28 116] UART Recv: @2[SAT145
]

5341543134350D
[2018-05-28 02:31:28 843] CountDown Run[33,85]

[2018-05-28 02:31:29 858] CountDown Run[34,85]

[2018-05-28 02:31:30 875] CountDown Run[35,85]

[2018-05-28 02:31:31 886] CountDown Run[36,85]

[2018-05-28 02:31:32 304] UART Recv: @2[
C=]

0A433D
[2018-05-28 02:31:32 306] UART Send: [SKM25 30
]

534B4D32352033300D
[2018-05-28 02:31:32 432] UART Recv: @2[SKM25 30
]

534B4D32352033300D
[2018-05-28 02:31:32 900] CountDown Run[37,85]

[2018-05-28 02:31:33 913] CountDown Run[38,85]

[2018-05-28 02:31:34 931] CountDown Run[39,85]

[2018-05-28 02:31:35 663] UART Recv: @2[
C=]

0A433D
[2018-05-28 02:31:35 665] UART Send: [RKM
]

524B4D0D
[2018-05-28 02:31:35 790] UART Recv: @2[RKM
24.95

30.02
C=]

524B4D0D32342E39350D200D33302E30320D0A433D
[2018-05-28 02:31:35 792] UART Send: [SSC10
]

53534331300D
[2018-05-28 02:31:35 792] CountDown start[0,85]

[2018-05-28 02:31:35 918] UART Recv: @2[SSC10
 145.0000       55
]

53534331300D0A203134352E303030302020202020202035350D0A
[2018-05-28 02:31:35 944] CountDown Run[0,85]

[2018-05-28 02:31:36 046] UART Recv: @2[ 145.0200       42
 145.0400       49
]

203134352E303230302020202020202034320D0A203134352E303430302020202020202034390D
[2018-05-28 02:31:36 174] UART Recv: @2[
 145.0600       48
 145.0800       60
]

0A203134352E303630302020202020202034380D0A203134352E303830302020202020202036300D
[2018-05-28 02:31:36 302] UART Recv: @2[
 145.1000       53
 145.1200       48
]

0A203134352E313030302020202020202035330D0A203134352E313230302020202020202034380D
[2018-05-28 02:31:36 430] UART Recv: @2[
 145.1400       45
 145.1600       43
]

0A203134352E313430302020202020202034350D0A203134352E313630302020202020202034330D
[2018-05-28 02:31:36 574] UART Recv: @2[
 145.1800       46
 145.2000       33
 145.2200       46
]

0A203134352E313830302020202020202034360D0A203134352E323030302020202020202033330D0A203134352E323230302020202020202034360D
[2018-05-28 02:31:36 750] UART Recv: @2[
 145.2400       37
 145.2600       49
]

0A203134352E323430302020202020202033370D0A203134352E323630302020202020202034390D
[2018-05-28 02:31:36 877] UART Recv: @2[
 145.2800       46
 145.3000       54
]

0A203134352E323830302020202020202034360D0A203134352E333030302020202020202035340D
[2018-05-28 02:31:36 955] CountDown Run[1,85]

[2018-05-28 02:31:37 005] UART Recv: @2[
 145.3200       53
 145.3400       59
]

0A203134352E333230302020202020202035330D0A203134352E333430302020202020202035390D
[2018-05-28 02:31:37 133] UART Recv: @2[
 145.3600       49
 145.3800       58
]

0A203134352E333630302020202020202034390D0A203134352E333830302020202020202035380D
[2018-05-28 02:31:37 261] UART Recv: @2[
 145.4000       62
 145.4200       58
]

0A203134352E343030302020202020202036320D0A203134352E343230302020202020202035380D
[2018-05-28 02:31:37 405] UART Recv: @2[
 145.4400       43
 145.4600       40
]

0A203134352E343430302020202020202034330D0A203134352E343630302020202020202034300D
[2018-05-28 02:31:37 533] UART Recv: @2[
 145.4800       52
 145.5000       49
]

0A203134352E343830302020202020202035320D0A203134352E353030302020202020202034390D
[2018-05-28 02:31:37 661] UART Recv: @2[
 145.5200       43
 145.5400       41
]

0A203134352E353230302020202020202034330D0A203134352E353430302020202020202034310D
[2018-05-28 02:31:37 789] UART Recv: @2[
 145.5600       60
 145.5800       53
]

0A203134352E353630302020202020202036300D0A203134352E353830302020202020202035330D
[2018-05-28 02:31:37 917] UART Recv: @2[
 145.6000       46
 145.6200       42
]

0A203134352E363030302020202020202034360D0A203134352E363230302020202020202034320D
[2018-05-28 02:31:37 969] CountDown Run[2,85]

[2018-05-28 02:31:38 045] UART Recv: @2[
 145.6400       31
 145.6600       43
]

0A203134352E363430302020202020202033310D0A203134352E363630302020202020202034330D
[2018-05-28 02:31:38 173] UART Recv: @2[
 145.6800       35
 145.7000       36
]

0A203134352E363830302020202020202033350D0A203134352E373030302020202020202033360D
[2018-05-28 02:31:38 301] UART Recv: @2[
 145.7200       48
 145.7400       46
]

0A203134352E373230302020202020202034380D0A203134352E373430302020202020202034360D
[2018-05-28 02:31:38 429] UART Recv: @2[
 145.7600       40
 145.7800       47
]

0A203134352E373630302020202020202034300D0A203134352E373830302020202020202034370D
[2018-05-28 02:31:38 572] UART Recv: @2[
 145.8000       54
 145.8200       45
]

0A203134352E383030302020202020202035340D0A203134352E383230302020202020202034350D
[2018-05-28 02:31:38 700] UART Recv: @2[
 145.8400       45
 145.8600       42
]

0A203134352E383430302020202020202034350D0A203134352E383630302020202020202034320D
[2018-05-28 02:31:38 828] UART Recv: @2[
 145.8800       33
 145.9000       53
]

0A203134352E383830302020202020202033330D0A203134352E393030302020202020202035330D
[2018-05-28 02:31:38 956] UART Recv: @2[
 145.9200       39
 145.9400       43
]

0A203134352E393230302020202020202033390D0A203134352E393430302020202020202034330D
[2018-05-28 02:31:38 984] CountDown Run[3,85]

[2018-05-28 02:31:39 084] UART Recv: @2[
 145.9600       28
 145.9800       40
]

0A203134352E393630302020202020202032380D0A203134352E393830302020202020202034300D
[2018-05-28 02:31:39 212] UART Recv: @2[
 146.0000       51
 146.0200       53
]

0A203134362E303030302020202020202035310D0A203134362E303230302020202020202035330D
[2018-05-28 02:31:39 340] UART Recv: @2[
 146.0400       49
 146.0600       45
]

0A203134362E303430302020202020202034390D0A203134362E303630302020202020202034350D
[2018-05-28 02:31:39 468] UART Recv: @2[
 146.0800       53
 146.1000       49
]

0A203134362E303830302020202020202035330D0A203134362E313030302020202020202034390D
[2018-05-28 02:31:39 596] UART Recv: @2[
 146.1200       42
 146.1400       41
]

0A203134362E313230302020202020202034320D0A203134362E313430302020202020202034310D
[2018-05-28 02:31:39 724] UART Recv: @2[
 146.1600       42
 146.1800       39
]

0A203134362E313630302020202020202034320D0A203134362E313830302020202020202033390D
[2018-05-28 02:31:39 868] UART Recv: @2[
 146.2000       36
 146.2200       45
]

0A203134362E323030302020202020202033360D0A203134362E323230302020202020202034350D
[2018-05-28 02:31:39 996] CountDown Run[4,85]

[2018-05-28 02:31:39 998] UART Recv: @2[
 146.2400       45
 146.2600       51
]

0A203134362E323430302020202020202034350D0A203134362E323630302020202020202035310D
[2018-05-28 02:31:40 123] UART Recv: @2[
 146.2800       28
 146.3000       46
]

0A203134362E323830302020202020202032380D0A203134362E333030302020202020202034360D
[2018-05-28 02:31:40 252] UART Recv: @2[
 146.3200       60
 146.3400       50
]

0A203134362E333230302020202020202036300D0A203134362E333430302020202020202035300D
[2018-05-28 02:31:40 380] UART Recv: @2[
 146.3600       45
 146.3800       48
]

0A203134362E333630302020202020202034350D0A203134362E333830302020202020202034380D
[2018-05-28 02:31:40 507] UART Recv: @2[
 146.4000       43
 146.4200       43
]

0A203134362E343030302020202020202034330D0A203134362E343230302020202020202034330D
[2018-05-28 02:31:40 635] UART Recv: @2[
 146.4400       50
 146.4600       41
]

0A203134362E343430302020202020202035300D0A203134362E343630302020202020202034310D
[2018-05-28 02:31:40 763] UART Recv: @2[
 146.4800       43
 146.5000       46
]

0A203134362E343830302020202020202034330D0A203134362E353030302020202020202034360D
[2018-05-28 02:31:40 892] UART Recv: @2[
 146.5200       41
 146.5400       49
]

0A203134362E353230302020202020202034310D0A203134362E353430302020202020202034390D
[2018-05-28 02:31:41 012] CountDown Run[5,85]

[2018-05-28 02:31:41 019] UART Recv: @2[
 146.5600       34
 146.5800       56
]

0A203134362E353630302020202020202033340D0A203134362E353830302020202020202035360D
[2018-05-28 02:31:41 163] UART Recv: @2[
 146.6000       48
 146.6200       55
]

0A203134362E363030302020202020202034380D0A203134362E363230302020202020202035350D
[2018-05-28 02:31:41 291] UART Recv: @2[
 146.6400       38
 146.6600       34
]

0A203134362E363430302020202020202033380D0A203134362E363630302020202020202033340D
[2018-05-28 02:31:41 419] UART Recv: @2[
 146.6800       40
 146.7000       57
]

0A203134362E363830302020202020202034300D0A203134362E373030302020202020202035370D
[2018-05-28 02:31:41 547] UART Recv: @2[
 146.7200       57
 146.7400       51
]

0A203134362E373230302020202020202035370D0A203134362E373430302020202020202035310D
[2018-05-28 02:31:41 676] UART Recv: @2[
 146.7600       57
 146.7800       49
]

0A203134362E373630302020202020202035370D0A203134362E373830302020202020202034390D
[2018-05-28 02:31:41 802] UART Recv: @2[
 146.8000       42
 146.8200       46
]

0A203134362E383030302020202020202034320D0A203134362E383230302020202020202034360D
[2018-05-28 02:31:41 930] UART Recv: @2[
 146.8400       43
 146.8600       58
]

0A203134362E383430302020202020202034330D0A203134362E383630302020202020202035380D
[2018-05-28 02:31:42 028] CountDown Run[6,85]

[2018-05-28 02:31:42 058] UART Recv: @2[
 146.8800       50
 146.9000       49
]

0A203134362E383830302020202020202035300D0A203134362E393030302020202020202034390D
[2018-05-28 02:31:42 190] UART Recv: @2[
 146.9200       35
 146.9400       54
]

0A203134362E393230302020202020202033350D0A203134362E393430302020202020202035340D
[2018-05-28 02:31:42 330] UART Recv: @2[
 146.9600       49
 146.9800       51
]

0A203134362E393630302020202020202034390D0A203134362E393830302020202020202035310D
[2018-05-28 02:31:42 458] UART Recv: @2[
 147.0000       57
 147.0200       49
]

0A203134372E303030302020202020202035370D0A203134372E303230302020202020202034390D
[2018-05-28 02:31:42 591] UART Recv: @2[
 147.0400       45
 147.0600       45
]

0A203134372E303430302020202020202034350D0A203134372E303630302020202020202034350D
[2018-05-28 02:31:42 716] UART Recv: @2[
 147.0800       48
 147.1000       57
]

0A203134372E303830302020202020202034380D0A203134372E313030302020202020202035370D
[2018-05-28 02:31:42 842] UART Recv: @2[
 147.1200       50
 147.1400       52
]

0A203134372E313230302020202020202035300D0A203134372E313430302020202020202035320D
[2018-05-28 02:31:42 970] UART Recv: @2[
 147.1600       51
 147.1800       63
]

[...]
]

0A203135332E373630302020202020203335330D0A203135332E373830302020202020203335370D
[2018-05-28 02:33:02 266] UART Recv: @2[
 153.8000      353
 153.8200      336
]

0A203135332E383030302020202020203335330D0A203135332E383230302020202020203333360D
[2018-05-28 02:33:02 414] UART Recv: @2[
 153.8400      350
 153.8600      366
]

0A203135332E383430302020202020203335300D0A203135332E383630302020202020203336360D
[2018-05-28 02:33:02 537] UART Recv: @2[
 153.8800      371
 153.9000      388
]

0A203135332E383830302020202020203337310D0A203135332E393030302020202020203338380D
[2018-05-28 02:33:02 665] UART Recv: @2[
 153.9200      383
 153.9400      391
]

0A203135332E393230302020202020203338330D0A203135332E393430302020202020203339310D
[2018-05-28 02:33:02 794] UART Recv: @2[
 153.9600      384
 153.9800      409
]

0A203135332E393630302020202020203338340D0A203135332E393830302020202020203430390D
[2018-05-28 02:33:02 938] UART Recv: @2[
 154.0000      410
 154.0200      435
 154.0400      425
]

0A203135342E303030302020202020203431300D0A203135342E303230302020202020203433350D0A203135342E303430302020202020203432350D
[2018-05-28 02:33:02 966] CountDown Run[28,85]

[2018-05-28 02:33:03 113] UART Recv: @2[
 154.0600      402
 154.0800      418
]

0A203135342E303630302020202020203430320D0A203135342E303830302020202020203431380D
[2018-05-28 02:33:03 241] UART Recv: @2[
 154.1000      432
 154.1200      423
]

0A203135342E313030302020202020203433320D0A203135342E313230302020202020203432330D
[2018-05-28 02:33:03 369] UART Recv: @2[
 154.1400      416
 154.1600      415
]

0A203135342E313430302020202020203431360D0A203135342E313630302020202020203431350D
[2018-05-28 02:33:03 497] UART Recv: @2[
 154.1800      416
 154.2000      444
]

0A203135342E313830302020202020203431360D0A203135342E323030302020202020203434340D
[2018-05-28 02:33:03 625] UART Recv: @2[
 154.2200      445
 154.2400      445
]

0A203135342E323230302020202020203434350D0A203135342E323430302020202020203434350D
[2018-05-28 02:33:03 769] UART Recv: @2[
 154.2600      424
 154.2800      454
]

0A203135342E323630302020202020203432340D0A203135342E323830302020202020203435340D
[2018-05-28 02:33:03 897] UART Recv: @2[
 154.3000      446
 154.3200      471
]

0A203135342E333030302020202020203434360D0A203135342E333230302020202020203437310D
[2018-05-28 02:33:03 973] CountDown Run[29,85]

[2018-05-28 02:33:04 024] UART Recv: @2[
 154.3400      469
 154.3600      465
]

0A203135342E333430302020202020203436390D0A203135342E333630302020202020203436350D
[2018-05-28 02:33:04 152] UART Recv: @2[
 154.3800      464
 154.4000      421
]

0A203135342E333830302020202020203436340D0A203135342E343030302020202020203432310D
[2018-05-28 02:33:04 280] UART Recv: @2[
 154.4200      451
 154.4400      469
]

0A203135342E343230302020202020203435310D0A203135342E343430302020202020203436390D
[2018-05-28 02:33:04 408] UART Recv: @2[
 154.4600      490
 154.4800      485
]

0A203135342E343630302020202020203439300D0A203135342E343830302020202020203438350D
[2018-05-28 02:33:04 536] UART Recv: @2[
 154.5000      427
 154.5200      480
]

0A203135342E353030302020202020203432370D0A203135342E353230302020202020203438300D
[2018-05-28 02:33:04 664] UART Recv: @2[
 154.5400      494
 154.5600      513
]

0A203135342E353430302020202020203439340D0A203135342E353630302020202020203531330D
[2018-05-28 02:33:04 792] UART Recv: @2[
 154.5800      513
 154.6000      499
]

0A203135342E353830302020202020203531330D0A203135342E363030302020202020203439390D
[2018-05-28 02:33:04 936] UART Recv: @2[
 154.6200      499
 154.6400      462
]

0A203135342E363230302020202020203439390D0A203135342E363430302020202020203436320D
[2018-05-28 02:33:04 986] CountDown Run[30,85]

[2018-05-28 02:33:05 064] UART Recv: @2[
 154.6600      479
 154.6800      474
]

0A203135342E363630302020202020203437390D0A203135342E363830302020202020203437340D
[2018-05-28 02:33:05 192] UART Recv: @2[
 154.7000      492
 154.7200      492
]

0A203135342E373030302020202020203439320D0A203135342E373230302020202020203439320D
[2018-05-28 02:33:05 335] UART Recv: @2[
 154.7400      458
 154.7600      475
]

0A203135342E373430302020202020203435380D0A203135342E373630302020202020203437350D
[2018-05-28 02:33:05 455] UART Recv: @2[
 154.7800      512
 154.8000      492
]

0A203135342E373830302020202020203531320D0A203135342E383030302020202020203439320D
[2018-05-28 02:33:05 576] UART Recv: @2[
 154.8200      497
 154.8400      462
]

0A203135342E383230302020202020203439370D0A203135342E383430302020202020203436320D
[2018-05-28 02:33:05 703] UART Recv: @2[
 154.8600      456
 154.8800      503
]

0A203135342E383630302020202020203435360D0A203135342E383830302020202020203530330D
[2018-05-28 02:33:05 831] UART Recv: @2[
 154.9000      480
 154.9200      499
]

0A203135342E393030302020202020203438300D0A203135342E393230302020202020203439390D
[2018-05-28 02:33:05 990] UART Recv: @2[
 154.9400      467
 154.9600      511
 154.9800      500
]

0A203135342E393430302020202020203436370D0A203135342E393630302020202020203531310D0A203135342E393830302020202020203530300D
[2018-05-28 02:33:06 049] CountDown Run[31,85]

[2018-05-28 02:33:06 168] UART Recv: @2[
 155.0000      486
C=]

0A203135352E303030302020202020203438360D0A433D
[2018-05-28 02:33:06 972] Python Cmd: [python D:\PCTool\XRD_Tool_20180527_2100\XRD_Tool\XRD_Tool\bin\Debug\CurveFittingPearson_20180526.py 1 D:\PCTool\XRD_Tool\XRD_Tool\bin\Debug\SDD_sample_name_001_Psi-0_20180528-023233.txt 0 > D:\PCTool\XRD_Tool_20180527_2100\XRD_Tool\XRD_Tool\bin\Debug\CalcResult.py]

[2018-05-28 02:33:06 972] Python Result: [154.63,499.465,2.56393,0.556931,2.56393]

[2018-05-28 02:33:06 973] UART Send: [STA15
]

53544131350D
[2018-05-28 02:33:07 022] CountDown Run[32,85]

[2018-05-28 02:33:07 103] UART Recv: @2[STA15
]

53544131350D
[2018-05-28 02:33:08 036] CountDown Run[33,85]

[2018-05-28 02:33:09 043] CountDown Run[34,85]

[2018-05-28 02:33:10 057] CountDown Run[35,85]

[2018-05-28 02:33:11 071] CountDown Run[36,85]

[2018-05-28 02:33:12 085] CountDown Run[37,85]

[2018-05-28 02:33:13 099] CountDown Run[38,85]

[2018-05-28 02:33:14 113] CountDown Run[39,85]

[2018-05-28 02:33:15 127] CountDown Run[40,85]

[2018-05-28 02:33:16 143] CountDown Run[41,85]

[2018-05-28 02:33:17 155] CountDown Run[42,85]

[2018-05-28 02:33:18 169] CountDown Run[43,85]

[2018-05-28 02:33:19 184] CountDown Run[44,85]

[2018-05-28 02:33:20 197] CountDown Run[45,85]

[2018-05-28 02:33:21 211] CountDown Run[46,85]

[2018-05-28 02:33:22 225] CountDown Run[47,85]

[2018-05-28 02:33:23 505] CountDown Run[48,85]

[2018-05-28 02:33:24 253] CountDown Run[49,85]

[2018-05-28 02:33:25 267] CountDown Run[50,85]

[2018-05-28 02:33:26 281] CountDown Run[51,85]

[2018-05-28 02:33:27 295] CountDown Run[52,85]

[2018-05-28 02:33:28 309] CountDown Run[53,85]

[2018-05-28 02:33:28 585] UART Send: [/
]

2F0D
[2018-05-28 02:33:28 715] UART Recv: @2[
C=]

0A433D
[2018-05-28 02:33:28 717] UART Send: [SHC
]

5348430D
[2018-05-28 02:33:29 323] CountDown Run[54,85]

[2018-05-28 02:33:30 337] CountDown Run[55,85]

[2018-05-28 02:33:31 351] CountDown Run[56,85]

[2018-05-28 02:33:32 365] CountDown Run[57,85]

[2018-05-28 02:33:33 379] CountDown Run[58,85]

[2018-05-28 02:33:34 393] CountDown Run[59,85]

[2018-05-28 02:33:35 409] CountDown Run[60,85]

[2018-05-28 02:33:36 421] CountDown Run[61,85]

[2018-05-28 02:33:37 435] CountDown Run[62,85]

[2018-05-28 02:33:38 449] CountDown Run[63,85]

[2018-05-28 02:33:39 463] CountDown Run[64,85]

[2018-05-28 02:33:40 478] CountDown Run[65,85]

[2018-05-28 02:33:41 491] CountDown Run[66,85]

[2018-05-28 02:33:42 504] CountDown Run[67,85]

[2018-05-28 02:33:43 519] CountDown Run[68,85]

[2018-05-28 02:33:44 536] CountDown Run[69,85]

[2018-05-28 02:33:45 547] CountDown Run[70,85]

[2018-05-28 02:33:46 561] CountDown Run[71,85]

[2018-05-28 02:33:47 575] CountDown Run[72,85]

[2018-05-28 02:33:48 589] CountDown Run[73,85]

[2018-05-28 02:33:49 683] CountDown Run[74,85]

[2018-05-28 02:33:50 617] CountDown Run[75,85]

[2018-05-28 02:33:51 631] CountDown Run[76,85]

[2018-05-28 02:33:52 646] CountDown Run[77,85]

[2018-05-28 02:33:53 659] CountDown Run[78,85]

[2018-05-28 02:33:54 673] CountDown Run[79,85]

[2018-05-28 02:33:55 688] CountDown Run[80,85]

[2018-05-28 02:33:56 701] CountDown Run[81,85]

[2018-05-28 02:33:57 717] CountDown Run[82,85]

[2018-05-28 02:33:58 729] CountDown Run[83,85]

[2018-05-28 02:33:59 743] CountDown Run[84,85]

[2018-05-28 02:33:59 746] CountDown stop[85,85]

[2018-05-28 02:34:00 872] UART Send: [/
]

2F0D
[2018-05-28 02:36:40 849] UART Recv: @2[
DX-2700BH TERMINAL=
++101
]

0A44582D323730304248205445524D494E414C3D0D2B2B3130310D