File: XRD_Tool/log/LDA_sample_name_56789_Psi-45_20180603-123104.txt
143.0000     271
143.0800     278
143.1600     292
143.2400     235
143.3200     247
143.4000     244
143.4800     262
143.5600     246
143.6400     255
143.7200     281
143.8000     262
143.8800     264
143.9600     249
144.0400     256
144.1200     257
144.2000     254
144.2800     266
144.3600     276
144.4400     240
144.5200     287
144.6000     248
144.6800     263
144.7600     268
144.8400     253
144.9200     225
145.0000     245
145.0800     251
145.1600     272
145.2400     265
145.3200     261
145.4000     246
145.4800     269
145.5600     286
145.6400     273
145.7200     260
145.8000     245
145.8800     273
145.9600     258
146.0400     252
146.1200     243
146.2000     277
146.2800     289
146.3600     243
146.4400     237
146.5200     271
146.6000     269
146.6800     230
146.7600     239
146.8400     266
146.9200     259
147.0000     273
147.0800     273
147.1600     273
147.2400     274
147.3200     246
147.4000     293
147.4800     258
147.5600     281
147.6400     258
147.7200     293
147.8000     293
147.8800     299
147.9600     301
148.0400     296
148.1200     297
148.2000     267
148.2800     267
148.3600     290
148.4400     280
148.5200     303
148.6000     265
148.6800     270
148.7600     273
148.8400     303
148.9200     280
149.0000     292
149.0800     285
149.1600     261
149.2400     277
149.3200     310
149.4000     297
149.4800     286
149.5600     293
149.6400     272
149.7200     276
149.8000     337
149.8800     320
149.9600     281
150.0400     288
150.1200     264
150.2000     292
150.2800     276
150.3600     292
150.4400     328
150.5200     333
150.6000     328
150.6800     297
150.7600     301
150.8400     354
150.9200     295
151.0000     316
151.0800     314
151.1600     283
151.2400     313
151.3200     341
151.4000     317
151.4800     343
151.5600     303
151.6400     347
151.7200     343
151.8000     335
151.8800     335
151.9600     340
152.0400     330
152.1200     379
152.2000     348
152.2800     386
152.3600     417
152.4400     423
152.5200     375
152.6000     431
152.6800     431
152.7600     445
152.8400     453
152.9200     466
153.0000     487
153.0800     452
153.1600     480
153.2400     497
153.3200     479
153.4000     529
153.4800     540
153.5600     540
153.6400     552
153.7200     612
153.8000     603
153.8800     619
153.9600     614
154.0400     579
154.1200     634
154.2000     624
154.2800     700
154.3600     653
154.4400     618
154.5200     665
154.6000     713
154.6800     768
154.7600     686
154.8400     724
154.9200     662
155.0000     734
155.0800     642
155.1600     654
155.2400     716
155.3200     726
155.4000     681
155.4800     684
155.5600     647
155.6400     696
155.7200     674
155.8000     609
155.8800     577
155.9600     597
156.0400     597
156.1200     588
156.2000     535
156.2800     583
156.3600     563
156.4400     515
156.5200     446
156.6000     465
156.6800     509
156.7600     509
156.8400     466
156.9200     470
157.0000     476
157.0800     405
157.1600     436
157.2400     418
157.3200     435
157.4000     403
157.4800     449
157.5600     369
157.6400     379
157.7200     375
157.8000     387
157.8800     376
157.9600     386
158.0400     388
158.1200     393
158.2000     350
158.2800     382
158.3600     367
158.4400     357
158.5200     385
158.6000     357
158.6800     369
158.7600     342
158.8400     356
158.9200     322
159.0000     293
159.0800     292
159.1600     341
159.2400     308
159.3200     306
159.4000     357
159.4800     318
159.5600     344
159.6400     329
159.7200     312
159.8000     298
159.8800     309
159.9600     343
160.0400     305
160.1200     285
160.2000     305
160.2800     277
160.3600     285
160.4400     312
160.5200     332
160.6000     304
160.6800     317
160.7600     287
160.8400     256
160.9200     315
161.0000     279
161.0800     291
161.1600     279
161.2400     270
161.3200     284
161.4000     303
161.4800     278
161.5600     299
161.6400     287
161.7200     273
161.8000     306
161.8800     283
161.9600     270
162.0400     263
162.1200     302
162.2000     258
162.2800     280
162.3600     286
162.4400     304
162.5200     262
162.6000     279
162.6800     290
162.7600     288
162.8400     307
162.9200     259
163.0000     288
163.0800     253
163.1600     290
163.2400     307
163.3200     273
163.4000     286
163.4800     300
163.5600     278
163.6400     282
163.7200     269
163.8000     290
163.8800     257
163.9600     268
164.0400     270
164.1200     266
164.2000     248
164.2800     267
164.3600     252
164.4400     284
164.5200     261
164.6000     264
164.6800     262
164.7600     262
164.8400     269
164.9200     258
165.0000     272
165.0800     282
165.1600     296
165.2400     256
165.3200     257
165.4000     264
165.4800     290
165.5600     287
165.6400     266
165.7200     280
165.8000     288
165.8800     270
165.9600     258
166.0400     244
166.1200     235
166.2000     280
166.2800     269
166.3600     246
166.4400     269
166.5200     259
166.6000     232
166.6800     299
166.7600     253
166.8400     272
166.9200     259
166.9600     269