File: XRD_Tool/log/LDA_sample_name_01_Psi-35_20180623-132334.txt
143.0000     248
143.0800     201
143.1600     267
143.2400     201
143.3200     247
143.4000     243
143.4800     250
143.5600     212
143.6400     172
143.7200     230
143.8000     334
143.8800     207
143.9600     235
144.0400     126
144.1200     233
144.2000     227
144.2800     257
144.3600     248
144.4400     158
144.5200     153
144.6000     233
144.6800     228
144.7600     233
144.8400     270
144.9200     234
145.0000     158
145.0800     246
145.1600     206
145.2400     267
145.3200     161
145.4000     184
145.4800     162
145.5600     157
145.6400     189
145.7200     240
145.8000     244
145.8800     208
145.9600     201
146.0400     207
146.1200     224
146.2000     239
146.2800     176
146.3600     237
146.4400     176
146.5200     308
146.6000     170
146.6800     138
146.7600     228
146.8400     165
146.9200     238
147.0000     286
147.0800     195
147.1600     235
147.2400     251
147.3200     243
147.4000     194
147.4800     237
147.5600     211
147.6400     202
147.7200     306
147.8000     239
147.8800     135
147.9600     244
148.0400     220
148.1200     280
148.2000     209
148.2800     239
148.3600     209
148.4400     217
148.5200     116
148.6000     164
148.6800     267
148.7600     128
148.8400     231
148.9200     239
149.0000     237
149.0800     317
149.1600     268
149.2400     265
149.3200     249
149.4000     243
149.4800     193
149.5600     244
149.6400     261
149.7200     147
149.8000     193
149.8800     184
149.9600     270
150.0400     242
150.1200     210
150.2000     299
150.2800     187
150.3600     100
150.4400     237
150.5200     225
150.6000     215
150.6800     200
150.7600     239
150.8400     252
150.9200     156
151.0000     248
151.0800     151
151.1600     256
151.2400     247
151.3200     173
151.4000     202
151.4800     205
151.5600     263
151.6400     215
151.7200     183
151.8000     237
151.8800     230
151.9600     194
152.0400     200
152.1200     181
152.2000     216
152.2800     248
152.3600     247
152.4400     169
152.5200     252
152.6000     190
152.6800     180
152.7600     228
152.8400     219
152.9200     109
153.0000     211
153.0800     227
153.1600     182
153.2400     258
153.3200     231
153.4000     191
153.4800     195
153.5600     200
153.6400     167
153.7200     261
153.8000     236
153.8800     186
153.9600     206
154.0400     191
154.1200     192
154.2000     211
154.2800     159
154.3600     208
154.4400     202
154.5200     199
154.6000     210
154.6800     210
154.7600     209
154.8400     207
154.9200     193
155.0000     241
155.0800     184
155.1600     135
155.2400     161
155.3200     199
155.4000     180
155.4800     185
155.5600     253
155.6400     269
155.7200     167
155.8000     274
155.8800     214
155.9600     155
156.0400     192
156.1200     211
156.2000     228
156.2800     120
156.3600     184
156.4400     182
156.5200     239
156.6000     119
156.6800     204
156.7600     206
156.8400     228
156.9200     245
157.0000     156
157.0800     259
157.1600     231
157.2400     268
157.3200     224
157.4000     165
157.4800     159
157.5600     169
157.6400     211
157.7200     201
157.8000     223
157.8800     205
157.9600     269
158.0400     269
158.1200     213
158.2000     112
158.2800     238
158.3600     219
158.4400     218
158.5200     164
158.6000     219
158.6800     214
158.7600     208
158.8400     129
158.9200     130
159.0000     171
159.0800     219
159.1600     218
159.2400     169
159.3200     167
159.4000     233
159.4800      99
159.5600     146
159.6400     236
159.7200     193
159.8000     202
159.8800     258
159.9600     162
160.0400     184
160.1200     153
160.2000     185
160.2800     191
160.3600     174
160.4400     111
160.5200     231
160.6000     112
160.6800     181
160.7600     171
160.8400     144
160.9200     211
161.0000     218
161.0800     134
161.1600     155
161.2400     129
161.3200     278
161.4000     184
161.4800     130
161.5600     234
161.6400     194
161.7200     105
161.8000     225
161.8800     183
161.9600      88
162.0400     127
162.1200      88
162.2000     109
162.2800     177
162.3600     152
162.4400     144
162.5200     154
162.6000     146
162.6800     166
162.7600     165
162.8400     148
162.9200     114
163.0000     175
163.0800     144
163.1600     171
163.2400     183
163.3200     139
163.4000     171
163.4800     207
163.5600      98
163.6400     178
163.7200     153
163.8000     112
163.8800     155
163.9600     132
164.0400     130
164.1200     160
164.2000     186
164.2800     263
164.3600     189
164.4400     122
164.5200     205
164.6000     163
164.6800      59
164.7600     137
164.8400     121
164.9200     133
165.0000     131
165.0800     196
165.1600     114
165.2400     170
165.3200     109
165.4000     128
165.4800     164
165.5600     138
165.6400      93
165.7200     113
165.8000     106
165.8800     177
165.9600     127
166.0400     116
166.1200      84
166.2000      67
166.2800     164
166.3600     119
166.4400      98
166.5200      95
166.6000     112
166.6800     139
166.7600      94
166.8400     140
166.9200     161
166.9800      93