File: XRD_Tool/log/LDA_sample_name_56789_Psi-24_20180623-130916.txt
138.0000     147
138.0800     130
138.1600     135
138.2400      82
138.3200      90
138.4000     104
138.4800     108
138.5600     107
138.6400      67
138.7200      93
138.8000      70
138.8800      98
138.9600     126
139.0400      97
139.1200     132
139.2000      97
139.2800      52
139.3600     104
139.4400     127
139.5200      81
139.6000      90
139.6800     110
139.7600      63
139.8400     132
139.9200     140
140.0000     124
140.0800     130
140.1600      73
140.2400     104
140.3200     115
140.4000     103
140.4800      89
140.5600      70
140.6400      69
140.7200     104
140.8000      81
140.8800     127
140.9600      84
141.0400     126
141.1200     107
141.2000      86
141.2800     117
141.3600     136
141.4400     100
141.5200     120
141.6000      66
141.6800     102
141.7600     132
141.8400     111
141.9200     104
142.0000     131
142.0800     111
142.1600      60
142.2400     159
142.3200     128
142.4000      70
142.4800     105
142.5600     147
142.6400     153
142.7200     137
142.8000     104
142.8800     155
142.9600      82
143.0400     115
143.1200     122
143.2000     156
143.2800      72
143.3600      62
143.4400     149
143.5200      99
143.6000     104
143.6800     133
143.7600     142
143.8400      93
143.9200     124
144.0000      99
144.0800     133
144.1600      79
144.2400     103
144.3200     105
144.4000     155
144.4800     137
144.5600     121
144.6400      92
144.7200     104
144.8000      98
144.8800      90
144.9600      91
145.0400      65
145.1200      81
145.2000      86
145.2800     125
145.3600     131
145.4400     116
145.5200      85
145.6000      70
145.6800      74
145.7600      94
145.8400     115
145.9200      99
146.0000      76
146.0800      56
146.1600     113
146.2400      98
146.3200     133
146.4000     109
146.4800      96
146.5600     107
146.6400      76
146.7200      86
146.8000     126
146.8800     117
146.9600      78
147.0400      76
147.1200      46
147.2000     118
147.2800      83
147.3600      87
147.4400     108
147.5200      70
147.6000      99
147.6800      60
147.7600      87
147.8400      83
147.9200     142
148.0000     146
148.0800      90
148.1600     125
148.2400      82
148.3200     124
148.4000     121
148.4800     113
148.5600      74
148.6400      76
148.7200     127
148.8000     117
148.8800     110
148.9600      92
149.0400      84
149.1200     107
149.2000     103
149.2800      95
149.3600      64
149.4400      93
149.5200      87
149.6000      82
149.6800      69
149.7600     110
149.8400     112
149.9200     145
150.0000      61
150.0800     121
150.1600      81
150.2400     110
150.3200     128
150.4000      67
150.4800      80
150.5600     106
150.6400     111
150.7200      92
150.8000      69
150.8800     121
150.9600     104
151.0400      75
151.1200      90
151.2000      87
151.2800      53
151.3600     102
151.4400     115
151.5200      90
151.6000      97
151.6800      89
151.7600      66
151.8400      85
151.9200     117
152.0000      94
152.0800     123
152.1600      67
152.2400      73
152.3200     138
152.4000     137
152.4800     102
152.5600     110
152.6400      66
152.7200     108
152.8000      88
152.8800     147
152.9600     123
153.0400     162
153.1200     106
153.2000      92
153.2800      48
153.3600     112
153.4400     126
153.5200      94
153.6000      75
153.6800     120
153.7600      76
153.8400     100
153.9200      99
154.0000     107
154.0800      85
154.1600     142
154.2400      83
154.3200      97
154.4000      59
154.4800     143
154.5600     106
154.6400     109
154.7200     102
154.8000      63
154.8800     119
154.9600      71
155.0400      53
155.1200     127
155.2000      82
155.2800     104
155.3600     112
155.4400     104
155.5200      89
155.6000      76
155.6800     103
155.7600      97
155.8400      85
155.9200      91
156.0000     112
156.0800     129
156.1600     100
156.2400      99
156.3200     138
156.4000      73
156.4800     101
156.5600     119
156.6400     150
156.7200      61
156.8000      94
156.8800     104
156.9600      74
157.0400     104
157.1200      77
157.2000     120
157.2800     106
157.3600      73
157.4400      74
157.5200      93
157.6000      64
157.6800      72
157.7600      82
157.8400     106
157.9200      96
158.0000      89
158.0800      71
158.1600      46
158.2400      57
158.3200      83
158.4000     106
158.4800     108
158.5600     103
158.6400      72
158.7200     133
158.8000      99
158.8800     107
158.9600      71
159.0400     138
159.1200      84
159.2000      93
159.2800      98
159.3600      84
159.4400     106
159.5200      72
159.6000      85
159.6800     108
159.7600     108
159.8400     112
159.9200     103
160.0000     101
160.0800     120
160.1600      82
160.2400      58
160.3200      82
160.4000     100
160.4800      84
160.5600      91
160.6400      75
160.7200      86
160.8000      79
160.8800      62
160.9600      17
161.0400     103
161.1200      54
161.2000      86
161.2800     102
161.3600     113
161.4400      87
161.5200      81
161.6000      46
161.6800      75
161.7600     101
161.8400     107
161.9200      56
161.9800      66