File: XRD_Tool/log/LDA_sample_name_56789_Psi-0_20180623-131331.txt
138.0000     551
138.0800     517
138.1600     532
138.2400     582
138.3200     729
138.4000     643
138.4800     737
138.5600     783
138.6400     777
138.7200     776
138.8000     815
138.8800     764
138.9600     825
139.0400     851
139.1200     876
139.2000     775
139.2800     948
139.3600     890
139.4400     919
139.5200     882
139.6000     972
139.6800     867
139.7600     988
139.8400     954
139.9200    1050
140.0000     973
140.0800    1070
140.1600    1116
140.2400     937
140.3200    1027
140.4000     935
140.4800     944
140.5600     902
140.6400     972
140.7200     967
140.8000     818
140.8800     833
140.9600     822
141.0400     879
141.1200     836
141.2000     811
141.2800     742
141.3600     847
141.4400     714
141.5200     710
141.6000     639
141.6800     654
141.7600     739
141.8400     717
141.9200     643
142.0000     741
142.0800     643
142.1600     598
142.2400     617
142.3200     654
142.4000     582
142.4800     616
142.5600     661
142.6400     447
142.7200     592
142.8000     496
142.8800     532
142.9600     467
143.0400     536
143.1200     472
143.2000     487
143.2800     403
143.3600     475
143.4400     398
143.5200     417
143.6000     371
143.6800     396
143.7600     343
143.8400     357
143.9200     364
144.0000     382
144.0800     336
144.1600     434
144.2400     301
144.3200     301
144.4000     362
144.4800     348
144.5600     252
144.6400     292
144.7200     295
144.8000     287
144.8800     298
144.9600     324
145.0400     290
145.1200     209
145.2000     277
145.2800     257
145.3600     282
145.4400     262
145.5200     243
145.6000     236
145.6800     267
145.7600     253
145.8400     208
145.9200     250
146.0000     206
146.0800     259
146.1600     245
146.2400     172
146.3200     273
146.4000     231
146.4800     214
146.5600     167
146.6400     176
146.7200     174
146.8000     149
146.8800     233
146.9600     211
147.0400     219
147.1200     223
147.2000     218
147.2800     200
147.3600     226
147.4400     235
147.5200     241
147.6000     214
147.6800     237
147.7600     205
147.8400     157
147.9200     214
148.0000     236
148.0800     176
148.1600     188
148.2400     177
148.3200     172
148.4000     200
148.4800     220
148.5600     174
148.6400     167
148.7200     217
148.8000     202
148.8800     218
148.9600     130
149.0400     179
149.1200     175
149.2000     195
149.2800     178
149.3600     157
149.4400     172
149.5200     189
149.6000     183
149.6800     216
149.7600     124
149.8400     193
149.9200     218
150.0000     136
150.0800     240
150.1600     179
150.2400     165
150.3200     178
150.4000     128
150.4800     128
150.5600     196
150.6400     194
150.7200     138
150.8000     176
150.8800     139
150.9600     122
151.0400     166
151.1200     145
151.2000     177
151.2800     161
151.3600     102
151.4400     153
151.5200     152
151.6000     176
151.6800     151
151.7600     146
151.8400     126
151.9200     157
152.0000     179
152.0800     148
152.1600     182
152.2400     168
152.3200     168
152.4000     190
152.4800     165
152.5600     162
152.6400     119
152.7200     182
152.8000     191
152.8800     153
152.9600     133
153.0400     181
153.1200     150
153.2000     225
153.2800     171
153.3600     154
153.4400     169
153.5200     150
153.6000     153
153.6800     168
153.7600     170
153.8400     145
153.9200     175
154.0000     183
154.0800     176
154.1600     139
154.2400     145
154.3200     102
154.4000     167
154.4800      88
154.5600      81
154.6400     155
154.7200     149
154.8000     123
154.8800     127
154.9600     119
155.0400     138
155.1200      56
155.2000     157
155.2800     125
155.3600     125
155.4400     154
155.5200     118
155.6000     146
155.6800     156
155.7600     159
155.8400     112
155.9200      72
156.0000     101
156.0800     150
156.1600     131
156.2400      82
156.3200     150
156.4000     150
156.4800     174
156.5600     146
156.6400     182
156.7200      54
156.8000      73
156.8800     108
156.9600     108
157.0400     106
157.1200     125
157.2000     133
157.2800      51
157.3600      70
157.4400      73
157.5200      88
157.6000     157
157.6800     142
157.7600     204
157.8400     157
157.9200     114
158.0000     142
158.0800     138
158.1600      91
158.2400     151
158.3200      92
158.4000     113
158.4800     106
158.5600     130
158.6400     121
158.7200      85
158.8000     154
158.8800     110
158.9600     102
159.0400      70
159.1200     108
159.2000     116
159.2800     136
159.3600      80
159.4400      76
159.5200     120
159.6000     172
159.6800      51
159.7600      96
159.8400     104
159.9200     144
160.0000     116
160.0800     141
160.1600      95
160.2400     106
160.3200     108
160.4000     141
160.4800     106
160.5600     128
160.6400      53
160.7200      80
160.8000      72
160.8800      74
160.9600     102
161.0400      93
161.1200     109
161.2000     156
161.2800      55
161.3600      86
161.4400      87
161.5200      69
161.6000     105
161.6800     146
161.7600      69
161.8400      79
161.9200      84
161.9800     147