File: XRD_Tool/log/LDA_sample_name_56789_Psi-0_20180623-130425.txt
138.0000     260
138.0800     246
138.1600     279
138.2400     307
138.3200     324
138.4000     260
138.4800     320
138.5600     324
138.6400     317
138.7200     354
138.8000     338
138.8800     329
138.9600     273
139.0400     330
139.1200     333
139.2000     439
139.2800     376
139.3600     382
139.4400     377
139.5200     367
139.6000     417
139.6800     370
139.7600     447
139.8400     426
139.9200     372
140.0000     423
140.0800     530
140.1600     481
140.2400     539
140.3200     472
140.4000     513
140.4800     476
140.5600     576
140.6400     632
140.7200     647
140.8000     648
140.8800     748
140.9600     751
141.0400     728
141.1200     837
141.2000     887
141.2800     997
141.3600    1021
141.4400     995
141.5200    1080
141.6000    1295
141.6800    1192
141.7600    1529
141.8400    1523
141.9200    1531
142.0000    1714
142.0800    2010
142.1600    2016
142.2400    2147
142.3200    2797
142.4000    2605
142.4800    2624
142.5600    2921
142.6400    2703
142.7200    2791
142.8000    2750
142.8800    2903
142.9600    2615
143.0400    2676
143.1200    2532
143.2000    2609
143.2800    2263
143.3600    2210
143.4400    2022
143.5200    2091
143.6000    1912
143.6800    1786
143.7600    1692
143.8400    1465
143.9200    1434
144.0000    1313
144.0800    1183
144.1600    1301
144.2400    1187
144.3200    1032
144.4000    1001
144.4800    1016
144.5600     943
144.6400     831
144.7200     833
144.8000     779
144.8800     744
144.9600     587
145.0400     529
145.1200     505
145.2000     436
145.2800     487
145.3600     393
145.4400     396
145.5200     389
145.6000     321
145.6800     274
145.7600     321
145.8400     274
145.9200     246
146.0000     214
146.0800     206
146.1600     178
146.2400     186
146.3200     151
146.4000     260
146.4800     114
146.5600     160
146.6400     169
146.7200     178
146.8000     181
146.8800     178
146.9600     134
147.0400     148
147.1200     137
147.2000     143
147.2800     135
147.3600     122
147.4400     142
147.5200     175
147.6000     148
147.6800     156
147.7600     115
147.8400     146
147.9200     141
148.0000      96
148.0800     136
148.1600     135
148.2400     124
148.3200      54
148.4000     122
148.4800     113
148.5600      84
148.6400     129
148.7200      90
148.8000      86
148.8800     134
148.9600      95
149.0400     157
149.1200     125
149.2000     110
149.2800     145
149.3600      97
149.4400      76
149.5200     100
149.6000     105
149.6800      96
149.7600     119
149.8400     137
149.9200     124
150.0000     100
150.0800     119
150.1600     127
150.2400      88
150.3200     157
150.4000      82
150.4800     135
150.5600     136
150.6400     126
150.7200     164
150.8000     106
150.8800     126
150.9600     148
151.0400     114
151.1200     124
151.2000     123
151.2800     122
151.3600      75
151.4400     107
151.5200     150
151.6000     104
151.6800     158
151.7600     119
151.8400     111
151.9200     132
152.0000      87
152.0800     109
152.1600     146
152.2400      99
152.3200     120
152.4000     141
152.4800     103
152.5600     138
152.6400     151
152.7200     102
152.8000      66
152.8800     128
152.9600     118
153.0400     167
153.1200      47
153.2000      83
153.2800     181
153.3600      79
153.4400     107
153.5200      89
153.6000     147
153.6800     146
153.7600     149
153.8400     111
153.9200     123
154.0000      52
154.0800     101
154.1600      87
154.2400      83
154.3200     129
154.4000     116
154.4800     107
154.5600     122
154.6400      78
154.7200     118
154.8000     121
154.8800      78
154.9600      77
155.0400      81
155.1200     133
155.2000      99
155.2800      48
155.3600     109
155.4400     111
155.5200      87
155.6000     105
155.6800      66
155.7600     101
155.8400     106
155.9200      64
156.0000      68
156.0800     105
156.1600     100
156.2400     122
156.3200     109
156.4000     119
156.4800      90
156.5600      99
156.6400     120
156.7200     115
156.8000      67
156.8800      59
156.9600      50
157.0400      61
157.1200      83
157.2000     115
157.2800     113
157.3600      95
157.4400      91
157.5200      94
157.6000     108
157.6800      99
157.7600      73
157.8400     139
157.9200     101
158.0000     111
158.0800      90
158.1600      82
158.2400      51
158.3200      92
158.4000      81
158.4800     103
158.5600     101
158.6400      58
158.7200      91
158.8000      47
158.8800      93
158.9600      68
159.0400      98
159.1200     105
159.2000     106
159.2800      94
159.3600     121
159.4400     117
159.5200     122
159.6000      29
159.6800      54
159.7600      70
159.8400      66
159.9200      69
160.0000      79
160.0800      65
160.1600     102
160.2400      85
160.3200      99
160.4000      21
160.4800      61
160.5600      77
160.6400      63
160.7200     102
160.8000      82
160.8800      98
160.9600      90
161.0400      76
161.1200      56
161.2000      82
161.2800     112
161.3600      92
161.4400      38
161.5200      55
161.6000      30
161.6800     103
161.7600      48
161.8400      85
161.9200      77
161.9800      64