File: XRD_Tool/log/LDA_sample_name_56789_Psi-24_20180623-131526.txt
138.0000     104
138.0800      92
138.1600     118
138.2400     119
138.3200      83
138.4000     100
138.4800      63
138.5600     120
138.6400     118
138.7200      80
138.8000      67
138.8800      80
138.9600     149
139.0400      90
139.1200     107
139.2000     122
139.2800     115
139.3600      97
139.4400      55
139.5200      60
139.6000     108
139.6800      33
139.7600     119
139.8400      63
139.9200     119
140.0000     125
140.0800      61
140.1600     114
140.2400      89
140.3200      53
140.4000     153
140.4800     105
140.5600      97
140.6400      89
140.7200      64
140.8000     141
140.8800      84
140.9600      87
141.0400     111
141.1200     121
141.2000      99
141.2800      78
141.3600     121
141.4400     118
141.5200      64
141.6000      80
141.6800     103
141.7600      76
141.8400     123
141.9200      90
142.0000      96
142.0800      80
142.1600     108
142.2400     108
142.3200     147
142.4000     114
142.4800      83
142.5600     115
142.6400      63
142.7200     106
142.8000      88
142.8800     109
142.9600     155
143.0400      83
143.1200      82
143.2000      75
143.2800     115
143.3600      99
143.4400     112
143.5200     150
143.6000      59
143.6800      87
143.7600     132
143.8400     104
143.9200      49
144.0000     107
144.0800     106
144.1600      65
144.2400     101
144.3200     101
144.4000     104
144.4800     123
144.5600     125
144.6400     108
144.7200      47
144.8000      67
144.8800      72
144.9600     104
145.0400      40
145.1200      81
145.2000      59
145.2800      62
145.3600      94
145.4400     121
145.5200     137
145.6000      56
145.6800      35
145.7600      87
145.8400      98
145.9200      75
146.0000      61
146.0800      77
146.1600      92
146.2400      54
146.3200      85
146.4000      65
146.4800     122
146.5600      69
146.6400      67
146.7200      82
146.8000      88
146.8800     102
146.9600      80
147.0400      46
147.1200     109
147.2000      78
147.2800     151
147.3600      73
147.4400     154
147.5200      98
147.6000     106
147.6800      83
147.7600     140
147.8400      57
147.9200      58
148.0000      94
148.0800      73
148.1600      52
148.2400      67
148.3200      56
148.4000      50
148.4800     126
148.5600      32
148.6400      81
148.7200      67
148.8000      97
148.8800      94
148.9600     105
149.0400      68
149.1200     109
149.2000      53
149.2800      80
149.3600     112
149.4400      63
149.5200      79
149.6000      41
149.6800     112
149.7600      44
149.8400      97
149.9200      90
150.0000      66
150.0800     103
150.1600      28
150.2400      94
150.3200     106
150.4000      89
150.4800     115
150.5600      75
150.6400      68
150.7200      87
150.8000      85
150.8800      67
150.9600      85
151.0400      67
151.1200      87
151.2000      35
151.2800     109
151.3600      69
151.4400      56
151.5200      91
151.6000      64
151.6800     112
151.7600      44
151.8400     110
151.9200      87
152.0000      53
152.0800      73
152.1600      45
152.2400      55
152.3200      49
152.4000      65
152.4800      46
152.5600     104
152.6400      47
152.7200      39
152.8000      99
152.8800      81
152.9600      62
153.0400      74
153.1200      74
153.2000      73
153.2800      71
153.3600      64
153.4400      78
153.5200      94
153.6000      68
153.6800      91
153.7600      56
153.8400      76
153.9200      53
154.0000      35
154.0800      86
154.1600      64
154.2400     110
154.3200      35
154.4000      67
154.4800      88
154.5600      97
154.6400      12
154.7200      75
154.8000     106
154.8800      64
154.9600     125
155.0400      67
155.1200     120
155.2000      86
155.2800      67
155.3600      53
155.4400      72
155.5200      71
155.6000      73
155.6800      76
155.7600      91
155.8400      83
155.9200      63
156.0000      81
156.0800     111
156.1600      43
156.2400      81
156.3200      44
156.4000      94
156.4800      76
156.5600      95
156.6400      90
156.7200     142
156.8000      50
156.8800      69
156.9600      76
157.0400      16
157.1200      28
157.2000      64
157.2800      57
157.3600      68
157.4400      59
157.5200      71
157.6000      55
157.6800      86
157.7600      38
157.8400      32
157.9200      79
158.0000      65
158.0800      62
158.1600     110
158.2400      48
158.3200      91
158.4000      90
158.4800      98
158.5600      55
158.6400      44
158.7200      82
158.8000      51
158.8800      33
158.9600      64
159.0400      91
159.1200      58
159.2000      37
159.2800     127
159.3600      26
159.4400      72
159.5200      37
159.6000      42
159.6800      71
159.7600      69
159.8400      51
159.9200      37
160.0000      59
160.0800      70
160.1600      94
160.2400      27
160.3200      59
160.4000      83
160.4800      54
160.5600      75
160.6400      48
160.7200      72
160.8000      21
160.8800      44
160.9600      63
161.0400      29
161.1200      57
161.2000      63
161.2800      54
161.3600      43
161.4400      29
161.5200      42
161.6000      39
161.6800      64
161.7600      57
161.8400      43
161.9200      56
161.9800      29