File: XRD_Tool/log/LDA_sample_name_01_Psi-24_20180623-132321.txt
143.0000     269
143.0800     215
143.1600     258
143.2400     291
143.3200     300
143.4000     207
143.4800     219
143.5600     242
143.6400     147
143.7200     237
143.8000     214
143.8800     193
143.9600     158
144.0400     295
144.1200     248
144.2000     311
144.2800     171
144.3600     160
144.4400     269
144.5200     214
144.6000     223
144.6800     187
144.7600     195
144.8400     232
144.9200     211
145.0000     195
145.0800     125
145.1600     215
145.2400     182
145.3200     211
145.4000     215
145.4800     204
145.5600     202
145.6400     238
145.7200     204
145.8000     241
145.8800     261
145.9600     234
146.0400     216
146.1200     139
146.2000     252
146.2800     192
146.3600     224
146.4400     190
146.5200     173
146.6000     255
146.6800     246
146.7600     187
146.8400     171
146.9200     213
147.0000     237
147.0800     194
147.1600     221
147.2400     201
147.3200     233
147.4000     180
147.4800     211
147.5600     159
147.6400     244
147.7200     219
147.8000     270
147.8800     246
147.9600     182
148.0400     203
148.1200      98
148.2000     224
148.2800     232
148.3600     177
148.4400     139
148.5200     222
148.6000     223
148.6800     222
148.7600     197
148.8400     238
148.9200     258
149.0000     212
149.0800     235
149.1600     242
149.2400     191
149.3200     163
149.4000     307
149.4800     193
149.5600     169
149.6400     211
149.7200     220
149.8000     208
149.8800     187
149.9600     204
150.0400     272
150.1200     223
150.2000     241
150.2800     187
150.3600     173
150.4400     237
150.5200     217
150.6000     317
150.6800     190
150.7600     225
150.8400     235
150.9200     187
151.0000     268
151.0800     240
151.1600     257
151.2400     267
151.3200     253
151.4000     213
151.4800     269
151.5600     189
151.6400     178
151.7200     233
151.8000     175
151.8800     233
151.9600     185
152.0400     185
152.1200      89
152.2000     240
152.2800     214
152.3600     221
152.4400      99
152.5200     234
152.6000     270
152.6800     284
152.7600     158
152.8400     203
152.9200     212
153.0000     221
153.0800     276
153.1600     224
153.2400     218
153.3200     225
153.4000     238
153.4800     195
153.5600     247
153.6400     285
153.7200     185
153.8000     231
153.8800     280
153.9600     208
154.0400     231
154.1200     257
154.2000     199
154.2800     228
154.3600     183
154.4400     230
154.5200     165
154.6000     182
154.6800     234
154.7600     183
154.8400     186
154.9200     174
155.0000     228
155.0800     233
155.1600     197
155.2400     140
155.3200     208
155.4000     236
155.4800     277
155.5600     181
155.6400     108
155.7200     186
155.8000     203
155.8800     148
155.9600     180
156.0400     146
156.1200     182
156.2000     267
156.2800     184
156.3600     161
156.4400     203
156.5200     184
156.6000     254
156.6800     201
156.7600     137
156.8400     170
156.9200     108
157.0000     222
157.0800     196
157.1600     201
157.2400     192
157.3200     280
157.4000     162
157.4800     185
157.5600     124
157.6400     192
157.7200     235
157.8000     205
157.8800      77
157.9600     173
158.0400     191
158.1200     194
158.2000     176
158.2800     142
158.3600     203
158.4400     251
158.5200     155
158.6000     216
158.6800     141
158.7600     195
158.8400     204
158.9200     161
159.0000     145
159.0800     203
159.1600     200
159.2400     169
159.3200     235
159.4000     261
159.4800     264
159.5600     265
159.6400     160
159.7200     149
159.8000     226
159.8800     219
159.9600     154
160.0400     157
160.1200     282
160.2000     181
160.2800     220
160.3600     154
160.4400     219
160.5200     186
160.6000     196
160.6800     161
160.7600     174
160.8400     155
160.9200     106
161.0000     155
161.0800     176
161.1600     113
161.2400     185
161.3200     200
161.4000     209
161.4800     117
161.5600     121
161.6400      96
161.7200     139
161.8000     148
161.8800     212
161.9600     120
162.0400     146
162.1200      95
162.2000     111
162.2800     139
162.3600     141
162.4400     168
162.5200     101
162.6000     158
162.6800     179
162.7600     187
162.8400     225
162.9200     183
163.0000     197
163.0800     160
163.1600     124
163.2400     132
163.3200     123
163.4000     121
163.4800     178
163.5600     171
163.6400     139
163.7200     160
163.8000     140
163.8800     137
163.9600     166
164.0400     180
164.1200     175
164.2000     213
164.2800     156
164.3600     140
164.4400     147
164.5200     132
164.6000      67
164.6800     119
164.7600      91
164.8400     100
164.9200      92
165.0000      91
165.0800     101
165.1600     126
165.2400     139
165.3200     155
165.4000     163
165.4800     120
165.5600     172
165.6400     157
165.7200     128
165.8000      68
165.8800     102
165.9600     147
166.0400     191
166.1200      48
166.2000      80
166.2800     140
166.3600      80
166.4400     130
166.5200     120
166.6000      95
166.6800      80
166.7600     126
166.8400     132
166.9200     110
166.9800     176