File: XRD_Tool/log/LDA_sample_name_56789_Psi-0_20180623-130348.txt
138.0000     588
138.0800     625
138.1600     583
138.2400     651
138.3200     641
138.4000     690
138.4800     723
138.5600     766
138.6400     847
138.7200     804
138.8000     796
138.8800     632
138.9600     808
139.0400     775
139.1200     858
139.2000     867
139.2800     913
139.3600     941
139.4400     952
139.5200     989
139.6000     827
139.6800     947
139.7600     981
139.8400    1014
139.9200     978
140.0000    1034
140.0800    1052
140.1600     988
140.2400     987
140.3200    1035
140.4000     801
140.4800    1016
140.5600     963
140.6400     922
140.7200     940
140.8000     827
140.8800     871
140.9600     876
141.0400     858
141.1200     817
141.2000     867
141.2800     882
141.3600     833
141.4400     726
141.5200     744
141.6000     723
141.6800     654
141.7600     652
141.8400     629
141.9200     657
142.0000     627
142.0800     621
142.1600     632
142.2400     643
142.3200     671
142.4000     655
142.4800     516
142.5600     579
142.6400     566
142.7200     527
142.8000     481
142.8800     532
142.9600     547
143.0400     565
143.1200     437
143.2000     501
143.2800     473
143.3600     408
143.4400     390
143.5200     461
143.6000     365
143.6800     407
143.7600     395
143.8400     438
143.9200     391
144.0000     353
144.0800     408
144.1600     336
144.2400     360
144.3200     365
144.4000     406
144.4800     379
144.5600     344
144.6400     386
144.7200     322
144.8000     292
144.8800     320
144.9600     327
145.0400     342
145.1200     281
145.2000     323
145.2800     272
145.3600     354
145.4400     269
145.5200     229
145.6000     301
145.6800     265
145.7600     285
145.8400     270
145.9200     213
146.0000     256
146.0800     287
146.1600     236
146.2400     241
146.3200     256
146.4000     257
146.4800     205
146.5600     252
146.6400     259
146.7200     238
146.8000     251
146.8800     220
146.9600     260
147.0400     238
147.1200     246
147.2000     202
147.2800     152
147.3600     158
147.4400     230
147.5200     239
147.6000     230
147.6800     250
147.7600     290
147.8400     197
147.9200     182
148.0000     245
148.0800     157
148.1600     157
148.2400     221
148.3200     143
148.4000     227
148.4800     268
148.5600     208
148.6400     195
148.7200     265
148.8000     238
148.8800     237
148.9600     184
149.0400     172
149.1200     148
149.2000     227
149.2800     178
149.3600     217
149.4400     198
149.5200     168
149.6000     203
149.6800     144
149.7600     217
149.8400     183
149.9200     162
150.0000      85
150.0800     179
150.1600     162
150.2400     197
150.3200     188
150.4000     144
150.4800     182
150.5600     227
150.6400     168
150.7200     191
150.8000     166
150.8800     142
150.9600     144
151.0400     174
151.1200     194
151.2000     221
151.2800     203
151.3600     222
151.4400     190
151.5200     175
151.6000     216
151.6800     160
151.7600     155
151.8400     158
151.9200     181
152.0000     213
152.0800     222
152.1600     178
152.2400     213
152.3200     217
152.4000     189
152.4800     184
152.5600     167
152.6400     193
152.7200     154
152.8000     195
152.8800     184
152.9600     108
153.0400     219
153.1200     155
153.2000     102
153.2800     200
153.3600     199
153.4400     158
153.5200     203
153.6000     158
153.6800     137
153.7600     116
153.8400     174
153.9200     182
154.0000     152
154.0800     188
154.1600     225
154.2400      86
154.3200     150
154.4000      94
154.4800     241
154.5600     124
154.6400     159
154.7200     158
154.8000     118
154.8800     114
154.9600     120
155.0400     200
155.1200     144
155.2000     159
155.2800      93
155.3600     180
155.4400     168
155.5200     129
155.6000     153
155.6800      94
155.7600     127
155.8400     146
155.9200     157
156.0000     140
156.0800     134
156.1600     170
156.2400     104
156.3200     191
156.4000     107
156.4800     171
156.5600      87
156.6400     141
156.7200     118
156.8000     120
156.8800     133
156.9600     136
157.0400      91
157.1200     119
157.2000     125
157.2800     168
157.3600     142
157.4400     155
157.5200     119
157.6000     162
157.6800     141
157.7600     130
157.8400     138
157.9200     201
158.0000     145
158.0800     102
158.1600     158
158.2400     189
158.3200     132
158.4000      50
158.4800     115
158.5600     150
158.6400     143
158.7200     100
158.8000     145
158.8800     107
158.9600     115
159.0400     148
159.1200      89
159.2000      64
159.2800     165
159.3600     152
159.4400      86
159.5200     142
159.6000     152
159.6800     130
159.7600      87
159.8400     119
159.9200     160
160.0000     115
160.0800     113
160.1600      90
160.2400     139
160.3200      57
160.4000     128
160.4800      88
160.5600      94
160.6400      93
160.7200     128
160.8000     154
160.8800     106
160.9600     120
161.0400     127
161.1200      64
161.2000     135
161.2800     153
161.3600      64
161.4400     104
161.5200     113
161.6000     140
161.6800      69
161.7600      78
161.8400     152
161.9200     120
161.9800     110