File: XRD_Tool/log/LDA_sample_name_56789_Psi-24_20180623-130404.txt
138.0000      76
138.0800     131
138.1600     112
138.2400     111
138.3200     110
138.4000      61
138.4800      56
138.5600      99
138.6400      76
138.7200      75
138.8000      82
138.8800      65
138.9600      95
139.0400      91
139.1200      84
139.2000      93
139.2800      67
139.3600      91
139.4400      86
139.5200      46
139.6000     109
139.6800      41
139.7600      72
139.8400      55
139.9200      79
140.0000      99
140.0800      49
140.1600      70
140.2400     116
140.3200      57
140.4000      83
140.4800      76
140.5600      87
140.6400      74
140.7200      65
140.8000      38
140.8800      48
140.9600      87
141.0400     109
141.1200      77
141.2000      74
141.2800      86
141.3600      96
141.4400      64
141.5200      72
141.6000      43
141.6800     107
141.7600      53
141.8400      38
141.9200      54
142.0000      79
142.0800     101
142.1600      96
142.2400      91
142.3200      57
142.4000      65
142.4800      74
142.5600     107
142.6400     102
142.7200      95
142.8000      59
142.8800      65
142.9600      95
143.0400      78
143.1200     103
143.2000      91
143.2800      75
143.3600      80
143.4400      90
143.5200     100
143.6000      67
143.6800      81
143.7600     112
143.8400      43
143.9200      71
144.0000      84
144.0800      35
144.1600      87
144.2400      77
144.3200      59
144.4000     106
144.4800      58
144.5600      54
144.6400      87
144.7200      48
144.8000      75
144.8800      75
144.9600      72
145.0400      80
145.1200      58
145.2000      48
145.2800      44
145.3600      76
145.4400      48
145.5200      59
145.6000      59
145.6800      93
145.7600      50
145.8400      84
145.9200      51
146.0000      78
146.0800      51
146.1600      68
146.2400      73
146.3200      67
146.4000     102
146.4800      51
146.5600      58
146.6400      94
146.7200      79
146.8000     104
146.8800      96
146.9600      81
147.0400      75
147.1200      88
147.2000      85
147.2800     102
147.3600      47
147.4400      69
147.5200      80
147.6000      97
147.6800      70
147.7600      65
147.8400      82
147.9200      60
148.0000      60
148.0800      67
148.1600      50
148.2400      90
148.3200     105
148.4000      59
148.4800      96
148.5600      37
148.6400      55
148.7200      84
148.8000      88
148.8800      80
148.9600      76
149.0400      52
149.1200      85
149.2000     137
149.2800      77
149.3600      70
149.4400      29
149.5200     104
149.6000     101
149.6800      84
149.7600      76
149.8400      20
149.9200      54
150.0000      87
150.0800      43
150.1600      98
150.2400      36
150.3200      71
150.4000      60
150.4800      91
150.5600      71
150.6400      70
150.7200      56
150.8000      37
150.8800     107
150.9600      49
151.0400      32
151.1200      32
151.2000      82
151.2800      58
151.3600      64
151.4400      61
151.5200      60
151.6000      63
151.6800      47
151.7600      32
151.8400      57
151.9200      54
152.0000      80
152.0800      75
152.1600      75
152.2400      48
152.3200      38
152.4000      76
152.4800      34
152.5600      56
152.6400      61
152.7200     106
152.8000      68
152.8800      72
152.9600      80
153.0400      84
153.1200      93
153.2000      79
153.2800      80
153.3600      58
153.4400      78
153.5200      81
153.6000      55
153.6800      59
153.7600      38
153.8400      49
153.9200     115
154.0000      68
154.0800      60
154.1600      73
154.2400      51
154.3200      64
154.4000      29
154.4800      56
154.5600      63
154.6400      26
154.7200      27
154.8000      37
154.8800      68
154.9600      84
155.0400     107
155.1200      31
155.2000      52
155.2800      59
155.3600      45
155.4400      47
155.5200      22
155.6000      69
155.6800      69
155.7600      58
155.8400      83
155.9200      75
156.0000      61
156.0800      52
156.1600      41
156.2400      40
156.3200      54
156.4000      30
156.4800      48
156.5600      36
156.6400      49
156.7200      57
156.8000      52
156.8800      31
156.9600      40
157.0400      48
157.1200      44
157.2000      76
157.2800      67
157.3600      73
157.4400      30
157.5200      48
157.6000      32
157.6800      56
157.7600      66
157.8400      61
157.9200      78
158.0000      52
158.0800      42
158.1600      84
158.2400      66
158.3200      66
158.4000      21
158.4800      15
158.5600      78
158.6400      60
158.7200     108
158.8000      31
158.8800      89
158.9600      67
159.0400      48
159.1200      74
159.2000      59
159.2800      60
159.3600      83
159.4400      76
159.5200      46
159.6000      42
159.6800      75
159.7600      29
159.8400      89
159.9200      49
160.0000      45
160.0800      65
160.1600      59
160.2400      40
160.3200      76
160.4000      48
160.4800      26
160.5600      48
160.6400      29
160.7200      82
160.8000      23
160.8800      50
160.9600      47
161.0400      70
161.1200      54
161.2000      23
161.2800      26
161.3600      23
161.4400      61
161.5200      47
161.6000      57
161.6800      46
161.7600      27
161.8400      85
161.9200      11
161.9800      61