File: XRD_Tool/log/LDA_sample_name_56789_Psi-24_20180623-131449.txt
138.0000      90
138.0800      94
138.1600      89
138.2400     113
138.3200      76
138.4000      94
138.4800      84
138.5600      61
138.6400      80
138.7200      93
138.8000      64
138.8800      40
138.9600      72
139.0400      60
139.1200      71
139.2000      72
139.2800     103
139.3600     101
139.4400      71
139.5200      97
139.6000      92
139.6800      91
139.7600      91
139.8400      94
139.9200      94
140.0000      38
140.0800      48
140.1600      45
140.2400      74
140.3200      72
140.4000     116
140.4800      85
140.5600     110
140.6400      58
140.7200      87
140.8000      49
140.8800      71
140.9600      65
141.0400      87
141.1200      68
141.2000     101
141.2800      87
141.3600      73
141.4400      72
141.5200      48
141.6000     102
141.6800      96
141.7600      63
141.8400      95
141.9200      66
142.0000      65
142.0800      78
142.1600      38
142.2400      54
142.3200      58
142.4000     116
142.4800      89
142.5600     112
142.6400      83
142.7200      94
142.8000      31
142.8800     102
142.9600     114
143.0400     108
143.1200      72
143.2000      47
143.2800     111
143.3600      69
143.4400      62
143.5200      85
143.6000     102
143.6800      54
143.7600      89
143.8400      38
143.9200      62
144.0000      50
144.0800      73
144.1600      71
144.2400      73
144.3200      48
144.4000      67
144.4800      64
144.5600      81
144.6400      87
144.7200      53
144.8000      96
144.8800      91
144.9600      49
145.0400      57
145.1200     101
145.2000      69
145.2800     126
145.3600      44
145.4400      48
145.5200     101
145.6000      81
145.6800      65
145.7600      97
145.8400      65
145.9200      87
146.0000      86
146.0800      91
146.1600      58
146.2400      74
146.3200      67
146.4000      44
146.4800      67
146.5600      71
146.6400      59
146.7200      82
146.8000      41
146.8800      61
146.9600      94
147.0400     102
147.1200     104
147.2000     118
147.2800      56
147.3600     100
147.4400     118
147.5200      88
147.6000      59
147.6800      65
147.7600      59
147.8400      48
147.9200      92
148.0000      71
148.0800      59
148.1600     112
148.2400      56
148.3200      74
148.4000      72
148.4800      44
148.5600      75
148.6400      50
148.7200      75
148.8000      72
148.8800      64
148.9600     105
149.0400     112
149.1200      50
149.2000      33
149.2800      80
149.3600     108
149.4400     108
149.5200      98
149.6000      86
149.6800      64
149.7600      34
149.8400      58
149.9200      68
150.0000      72
150.0800      37
150.1600     109
150.2400      83
150.3200      53
150.4000      83
150.4800     113
150.5600      76
150.6400      61
150.7200      78
150.8000      57
150.8800      76
150.9600      63
151.0400      43
151.1200      80
151.2000      47
151.2800      41
151.3600      77
151.4400      79
151.5200      58
151.6000      66
151.6800      27
151.7600      45
151.8400      42
151.9200      46
152.0000     107
152.0800      31
152.1600      77
152.2400     107
152.3200      35
152.4000      72
152.4800      65
152.5600      62
152.6400      72
152.7200      38
152.8000      83
152.8800      52
152.9600      42
153.0400      99
153.1200      85
153.2000      59
153.2800      78
153.3600      94
153.4400      86
153.5200      44
153.6000      79
153.6800      47
153.7600      50
153.8400      32
153.9200      60
154.0000      92
154.0800      50
154.1600      77
154.2400      72
154.3200      55
154.4000      47
154.4800      52
154.5600      26
154.6400      71
154.7200      11
154.8000      54
154.8800      69
154.9600      40
155.0400      54
155.1200      79
155.2000      75
155.2800      84
155.3600      65
155.4400      51
155.5200      71
155.6000      27
155.6800      45
155.7600      45
155.8400      75
155.9200      50
156.0000      45
156.0800      72
156.1600      79
156.2400      29
156.3200      78
156.4000       6
156.4800      34
156.5600      95
156.6400      60
156.7200      51
156.8000      34
156.8800      84
156.9600      18
157.0400      46
157.1200      46
157.2000      52
157.2800      71
157.3600     128
157.4400      18
157.5200      35
157.6000      39
157.6800      45
157.7600      66
157.8400     112
157.9200      59
158.0000       6
158.0800      81
158.1600      87
158.2400      87
158.3200      67
158.4000      78
158.4800      60
158.5600      42
158.6400       9
158.7200      52
158.8000      59
158.8800      96
158.9600      24
159.0400      60
159.1200      49
159.2000      62
159.2800      53
159.3600      60
159.4400      57
159.5200      25
159.6000      59
159.6800      63
159.7600      55
159.8400      52
159.9200      65
160.0000      52
160.0800      97
160.1600      40
160.2400      64
160.3200      65
160.4000      42
160.4800      53
160.5600      61
160.6400      70
160.7200       4
160.8000      64
160.8800      45
160.9600      41
161.0400      34
161.1200      44
161.2000      37
161.2800      51
161.3600      25
161.4400      69
161.5200      23
161.6000      19
161.6800      31
161.7600      73
161.8400      34
161.9200      35
161.9800      96