File: XRD_Tool/log/LDA_sample_name_56789_Psi-0_20180623-130904.txt
138.0000     131
138.0800      89
138.1600      42
138.2400      88
138.3200      84
138.4000      87
138.4800      68
138.5600      64
138.6400      79
138.7200      83
138.8000      58
138.8800      88
138.9600      99
139.0400      73
139.1200     116
139.2000      69
139.2800      88
139.3600      57
139.4400      80
139.5200      88
139.6000      68
139.6800     120
139.7600      91
139.8400     120
139.9200     111
140.0000     119
140.0800      92
140.1600      95
140.2400      96
140.3200      66
140.4000      59
140.4800      89
140.5600      84
140.6400      80
140.7200     115
140.8000     149
140.8800      92
140.9600      93
141.0400      99
141.1200      68
141.2000      75
141.2800      85
141.3600      99
141.4400     130
141.5200      99
141.6000     134
141.6800     127
141.7600      97
141.8400     119
141.9200      78
142.0000     120
142.0800     145
142.1600     103
142.2400      97
142.3200      86
142.4000     184
142.4800     135
142.5600     111
142.6400     131
142.7200     151
142.8000     147
142.8800     113
142.9600     106
143.0400     143
143.1200      94
143.2000     173
143.2800     164
143.3600     117
143.4400      85
143.5200     104
143.6000     121
143.6800     104
143.7600      81
143.8400      94
143.9200      90
144.0000     146
144.0800     134
144.1600     113
144.2400      79
144.3200     113
144.4000      92
144.4800      92
144.5600     111
144.6400      89
144.7200      93
144.8000     101
144.8800     108
144.9600     116
145.0400     114
145.1200      93
145.2000      86
145.2800      98
145.3600     110
145.4400     102
145.5200      93
145.6000     108
145.6800     141
145.7600     104
145.8400      62
145.9200      43
146.0000      66
146.0800      97
146.1600      69
146.2400      89
146.3200      71
146.4000      50
146.4800      92
146.5600      71
146.6400      46
146.7200     117
146.8000      65
146.8800      78
146.9600      80
147.0400     117
147.1200      82
147.2000      88
147.2800      95
147.3600      98
147.4400      96
147.5200      68
147.6000     113
147.6800      82
147.7600     104
147.8400      83
147.9200      47
148.0000     134
148.0800      50
148.1600      94
148.2400      86
148.3200      74
148.4000      88
148.4800      94
148.5600      70
148.6400     111
148.7200     109
148.8000      67
148.8800      82
148.9600      74
149.0400      52
149.1200     120
149.2000     104
149.2800      98
149.3600     110
149.4400      68
149.5200      69
149.6000      98
149.6800     102
149.7600      76
149.8400      98
149.9200     110
150.0000      73
150.0800     122
150.1600      73
150.2400      58
150.3200      90
150.4000     113
150.4800     106
150.5600     129
150.6400      70
150.7200      83
150.8000      66
150.8800      69
150.9600      73
151.0400      74
151.1200      77
151.2000      91
151.2800      75
151.3600     124
151.4400      78
151.5200      59
151.6000      98
151.6800      98
151.7600      97
151.8400      80
151.9200     111
152.0000      95
152.0800     119
152.1600     108
152.2400     107
152.3200      45
152.4000     110
152.4800      83
152.5600      32
152.6400      50
152.7200      45
152.8000      63
152.8800      86
152.9600      80
153.0400      99
153.1200     111
153.2000      84
153.2800      81
153.3600      85
153.4400      52
153.5200     107
153.6000      85
153.6800       3
153.7600      78
153.8400     128
153.9200      79
154.0000      97
154.0800      68
154.1600     108
154.2400      72
154.3200      85
154.4000      85
154.4800      51
154.5600      12
154.6400      96
154.7200      42
154.8000      52
154.8800      66
154.9600      82
155.0400     106
155.1200      53
155.2000      52
155.2800      76
155.3600      85
155.4400      62
155.5200      52
155.6000      85
155.6800      92
155.7600      52
155.8400      58
155.9200      64
156.0000      61
156.0800      55
156.1600      80
156.2400      81
156.3200      70
156.4000      40
156.4800      99
156.5600      48
156.6400      78
156.7200      83
156.8000      33
156.8800      55
156.9600      67
157.0400      67
157.1200      90
157.2000      76
157.2800      73
157.3600      67
157.4400      59
157.5200      58
157.6000     119
157.6800      48
157.7600      27
157.8400      82
157.9200      58
158.0000     109
158.0800      22
158.1600      70
158.2400      63
158.3200      60
158.4000      66
158.4800      56
158.5600      30
158.6400      66
158.7200      49
158.8000      44
158.8800      87
158.9600      60
159.0400      71
159.1200      25
159.2000      49
159.2800      27
159.3600      67
159.4400      50
159.5200      74
159.6000     121
159.6800      72
159.7600      83
159.8400      18
159.9200      32
160.0000      38
160.0800      81
160.1600      90
160.2400      77
160.3200      60
160.4000      68
160.4800      43
160.5600      67
160.6400      34
160.7200      51
160.8000      17
160.8800      54
160.9600      86
161.0400      14
161.1200      69
161.2000      21
161.2800      22
161.3600      63
161.4400      60
161.5200      19
161.6000      54
161.6800      58
161.7600      78
161.8400      29
161.9200      18
161.9800      83