File: XRD_Tool/log/LDA_sample_name_56789_Psi-0_20180623-130825.txt
138.0000     573
138.0800     615
138.1600     653
138.2400     663
138.3200     638
138.4000     726
138.4800     722
138.5600     694
138.6400     718
138.7200     720
138.8000     719
138.8800     851
138.9600     812
139.0400     857
139.1200     926
139.2000     817
139.2800     978
139.3600    1001
139.4400     927
139.5200    1015
139.6000     998
139.6800     879
139.7600    1072
139.8400     938
139.9200     991
140.0000    1062
140.0800     987
140.1600     971
140.2400     997
140.3200     849
140.4000     873
140.4800     962
140.5600    1028
140.6400     980
140.7200     856
140.8000     863
140.8800     844
140.9600     874
141.0400     785
141.1200     822
141.2000     996
141.2800     885
141.3600     808
141.4400     750
141.5200     755
141.6000     726
141.6800     597
141.7600     718
141.8400     541
141.9200     653
142.0000     591
142.0800     701
142.1600     646
142.2400     636
142.3200     697
142.4000     549
142.4800     685
142.5600     536
142.6400     549
142.7200     524
142.8000     526
142.8800     520
142.9600     526
143.0400     467
143.1200     410
143.2000     397
143.2800     517
143.3600     514
143.4400     442
143.5200     430
143.6000     355
143.6800     396
143.7600     375
143.8400     301
143.9200     352
144.0000     406
144.0800     294
144.1600     302
144.2400     353
144.3200     323
144.4000     336
144.4800     328
144.5600     290
144.6400     250
144.7200     316
144.8000     304
144.8800     319
144.9600     262
145.0400     340
145.1200     335
145.2000     274
145.2800     282
145.3600     222
145.4400     328
145.5200     199
145.6000     267
145.6800     259
145.7600     257
145.8400     188
145.9200     209
146.0000     179
146.0800     230
146.1600     277
146.2400     210
146.3200     223
146.4000     234
146.4800     259
146.5600     244
146.6400     217
146.7200     244
146.8000     241
146.8800     127
146.9600     213
147.0400     185
147.1200     193
147.2000     186
147.2800     182
147.3600     212
147.4400     216
147.5200     238
147.6000     252
147.6800     196
147.7600     201
147.8400     228
147.9200     209
148.0000     293
148.0800     156
148.1600     197
148.2400     188
148.3200     212
148.4000     240
148.4800     165
148.5600     213
148.6400     215
148.7200     165
148.8000     176
148.8800     218
148.9600     178
149.0400     224
149.1200      90
149.2000     188
149.2800     151
149.3600     193
149.4400     228
149.5200     158
149.6000     188
149.6800     177
149.7600     179
149.8400     195
149.9200     132
150.0000     241
150.0800     166
150.1600     146
150.2400     149
150.3200     185
150.4000     135
150.4800     146
150.5600     218
150.6400     128
150.7200     167
150.8000     177
150.8800     164
150.9600     153
151.0400     127
151.1200     184
151.2000     206
151.2800     101
151.3600     143
151.4400     202
151.5200     170
151.6000     135
151.6800     106
151.7600     112
151.8400     168
151.9200     157
152.0000     166
152.0800     104
152.1600     177
152.2400     167
152.3200     149
152.4000     161
152.4800      99
152.5600     129
152.6400     160
152.7200     214
152.8000     165
152.8800     134
152.9600     146
153.0400     147
153.1200     156
153.2000     137
153.2800     181
153.3600     146
153.4400     163
153.5200     179
153.6000     147
153.6800     178
153.7600     142
153.8400     133
153.9200     120
154.0000     101
154.0800     164
154.1600     132
154.2400     111
154.3200     149
154.4000     121
154.4800     161
154.5600     172
154.6400     101
154.7200      81
154.8000      75
154.8800     129
154.9600     155
155.0400     178
155.1200     144
155.2000     184
155.2800     155
155.3600     175
155.4400     125
155.5200     108
155.6000     143
155.6800     142
155.7600     142
155.8400      85
155.9200     106
156.0000     169
156.0800     126
156.1600      94
156.2400      82
156.3200     161
156.4000     141
156.4800      76
156.5600     114
156.6400     119
156.7200      55
156.8000     103
156.8800     145
156.9600     106
157.0400     158
157.1200     118
157.2000     101
157.2800     114
157.3600     100
157.4400      80
157.5200      87
157.6000     150
157.6800     134
157.7600     175
157.8400     130
157.9200     177
158.0000     207
158.0800     165
158.1600     166
158.2400     110
158.3200     126
158.4000     148
158.4800     104
158.5600     119
158.6400      91
158.7200     173
158.8000     145
158.8800     145
158.9600      66
159.0400     138
159.1200      25
159.2000      82
159.2800     124
159.3600      92
159.4400      89
159.5200     127
159.6000     103
159.6800     156
159.7600     132
159.8400     172
159.9200     127
160.0000      72
160.0800     112
160.1600     117
160.2400      70
160.3200     115
160.4000     123
160.4800      79
160.5600     140
160.6400      65
160.7200      99
160.8000      54
160.8800      77
160.9600     109
161.0400     119
161.1200     116
161.2000      97
161.2800     134
161.3600     107
161.4400     109
161.5200      45
161.6000      99
161.6800     121
161.7600      88
161.8400     105
161.9200      74
161.9800     108