File: XRD_Tool/log/LDA_sample_name_56789_Psi-24_20180623-130837.txt
138.0000     385
138.0800     405
138.1600     419
138.2400     456
138.3200     400
138.4000     473
138.4800     453
138.5600     456
138.6400     478
138.7200     500
138.8000     492
138.8800     582
138.9600     525
139.0400     463
139.1200     577
139.2000     576
139.2800     518
139.3600     686
139.4400     683
139.5200     632
139.6000     633
139.6800     654
139.7600     743
139.8400     644
139.9200     725
140.0000     672
140.0800     776
140.1600     743
140.2400     793
140.3200     820
140.4000     825
140.4800     737
140.5600     777
140.6400     832
140.7200     744
140.8000     803
140.8800     828
140.9600     752
141.0400     800
141.1200     725
141.2000     730
141.2800     742
141.3600     823
141.4400     771
141.5200     632
141.6000     725
141.6800     757
141.7600     611
141.8400     717
141.9200     687
142.0000     643
142.0800     634
142.1600     682
142.2400     615
142.3200     686
142.4000     630
142.4800     623
142.5600     643
142.6400     595
142.7200     566
142.8000     609
142.8800     630
142.9600     607
143.0400     495
143.1200     508
143.2000     529
143.2800     552
143.3600     437
143.4400     461
143.5200     460
143.6000     408
143.6800     390
143.7600     358
143.8400     387
143.9200     334
144.0000     400
144.0800     422
144.1600     380
144.2400     343
144.3200     332
144.4000     384
144.4800     302
144.5600     330
144.6400     297
144.7200     277
144.8000     306
144.8800     288
144.9600     299
145.0400     186
145.1200     203
145.2000     278
145.2800     313
145.3600     308
145.4400     316
145.5200     234
145.6000     241
145.6800     296
145.7600     266
145.8400     269
145.9200     240
146.0000     192
146.0800     199
146.1600     223
146.2400     199
146.3200     220
146.4000     169
146.4800     222
146.5600     264
146.6400     232
146.7200     171
146.8000     159
146.8800     215
146.9600     194
147.0400     234
147.1200     197
147.2000     225
147.2800     219
147.3600     160
147.4400     244
147.5200     275
147.6000     254
147.6800     177
147.7600     261
147.8400     191
147.9200     251
148.0000     198
148.0800     221
148.1600     161
148.2400     189
148.3200     197
148.4000     144
148.4800     193
148.5600     194
148.6400     194
148.7200     177
148.8000     216
148.8800     192
148.9600     165
149.0400     213
149.1200     176
149.2000     157
149.2800     133
149.3600     149
149.4400     236
149.5200     113
149.6000     136
149.6800     104
149.7600     160
149.8400     180
149.9200     142
150.0000     174
150.0800     175
150.1600     156
150.2400     181
150.3200     170
150.4000     215
150.4800     186
150.5600     122
150.6400     189
150.7200     159
150.8000     200
150.8800     144
150.9600     163
151.0400     183
151.1200     155
151.2000     122
151.2800     159
151.3600     172
151.4400     196
151.5200     166
151.6000     178
151.6800     199
151.7600     122
151.8400     159
151.9200     113
152.0000     195
152.0800     110
152.1600     151
152.2400     156
152.3200     157
152.4000     171
152.4800     121
152.5600     143
152.6400     132
152.7200     152
152.8000     174
152.8800     227
152.9600     144
153.0400     224
153.1200     118
153.2000     133
153.2800     152
153.3600     196
153.4400     197
153.5200     161
153.6000     167
153.6800     100
153.7600     112
153.8400     103
153.9200     119
154.0000     164
154.0800     148
154.1600     116
154.2400     166
154.3200     126
154.4000     177
154.4800     169
154.5600     132
154.6400     162
154.7200     105
154.8000     111
154.8800     155
154.9600     119
155.0400     137
155.1200     163
155.2000     135
155.2800      92
155.3600     113
155.4400      65
155.5200     139
155.6000     131
155.6800     131
155.7600      83
155.8400     129
155.9200     121
156.0000     104
156.0800     106
156.1600      67
156.2400     146
156.3200     128
156.4000      73
156.4800     109
156.5600     166
156.6400     107
156.7200      71
156.8000     123
156.8800     132
156.9600     139
157.0400     142
157.1200      91
157.2000     117
157.2800      69
157.3600     144
157.4400     112
157.5200     162
157.6000     139
157.6800     121
157.7600     100
157.8400     156
157.9200     110
158.0000      55
158.0800      88
158.1600      78
158.2400      84
158.3200      92
158.4000      73
158.4800     136
158.5600     148
158.6400     130
158.7200     142
158.8000      36
158.8800      86
158.9600     128
159.0400      61
159.1200      86
159.2000     132
159.2800     193
159.3600      63
159.4400     125
159.5200     137
159.6000      81
159.6800     115
159.7600     114
159.8400     144
159.9200     160
160.0000     199
160.0800     152
160.1600     117
160.2400      76
160.3200     118
160.4000     100
160.4800      82
160.5600     141
160.6400     119
160.7200      87
160.8000      67
160.8800      97
160.9600     124
161.0400     106
161.1200      97
161.2000      69
161.2800      72
161.3600      89
161.4400     126
161.5200     118
161.6000      65
161.6800     135
161.7600     128
161.8400     160
161.9200      47
161.9800      90