File: XRD_Tool/log/LDA_sample_name_56789_Psi-24_20180623-130441.txt
138.0000     148
138.0800     139
138.1600     107
138.2400     145
138.3200      98
138.4000     147
138.4800      84
138.5600     134
138.6400      69
138.7200     105
138.8000      99
138.8800      88
138.9600     115
139.0400     125
139.1200     124
139.2000      83
139.2800     117
139.3600      84
139.4400      93
139.5200     107
139.6000     110
139.6800     101
139.7600      72
139.8400      96
139.9200     148
140.0000      56
140.0800     106
140.1600     133
140.2400     102
140.3200     123
140.4000     108
140.4800      73
140.5600     136
140.6400     144
140.7200     121
140.8000     107
140.8800     161
140.9600     145
141.0400     149
141.1200      78
141.2000     171
141.2800     100
141.3600     150
141.4400     114
141.5200     113
141.6000     108
141.6800      97
141.7600     136
141.8400      99
141.9200      90
142.0000     153
142.0800     108
142.1600      99
142.2400     116
142.3200      64
142.4000     157
142.4800      75
142.5600     159
142.6400     111
142.7200     148
142.8000     110
142.8800     121
142.9600     153
143.0400     113
143.1200     123
143.2000     106
143.2800      85
143.3600     154
143.4400      96
143.5200      43
143.6000     149
143.6800     112
143.7600      84
143.8400     128
143.9200      67
144.0000     129
144.0800     159
144.1600      65
144.2400     116
144.3200     136
144.4000      65
144.4800      85
144.5600      63
144.6400      96
144.7200     124
144.8000     133
144.8800     116
144.9600      84
145.0400      68
145.1200      74
145.2000     117
145.2800     110
145.3600      97
145.4400      81
145.5200      65
145.6000      62
145.6800     106
145.7600      76
145.8400     124
145.9200     102
146.0000      76
146.0800      90
146.1600      81
146.2400     102
146.3200     107
146.4000      83
146.4800     110
146.5600     117
146.6400      86
146.7200      98
146.8000     134
146.8800     112
146.9600      91
147.0400      90
147.1200     130
147.2000     101
147.2800      93
147.3600      76
147.4400     130
147.5200      96
147.6000      94
147.6800     104
147.7600      98
147.8400     101
147.9200      92
148.0000     125
148.0800      91
148.1600      99
148.2400      97
148.3200     113
148.4000      48
148.4800      65
148.5600     101
148.6400     118
148.7200      92
148.8000     125
148.8800      78
148.9600      87
149.0400     118
149.1200     123
149.2000     109
149.2800      93
149.3600     106
149.4400     120
149.5200     112
149.6000      80
149.6800     133
149.7600      75
149.8400      86
149.9200      98
150.0000      39
150.0800     109
150.1600      66
150.2400     114
150.3200      91
150.4000     117
150.4800     113
150.5600     130
150.6400     120
150.7200      64
150.8000      87
150.8800      84
150.9600      76
151.0400      91
151.1200      79
151.2000      84
151.2800      96
151.3600     125
151.4400     105
151.5200      80
151.6000      77
151.6800      73
151.7600      46
151.8400      95
151.9200      79
152.0000      68
152.0800     129
152.1600      93
152.2400     121
152.3200     114
152.4000      97
152.4800      93
152.5600     105
152.6400     101
152.7200      71
152.8000     154
152.8800     140
152.9600      88
153.0400      88
153.1200      76
153.2000     123
153.2800     118
153.3600     126
153.4400      61
153.5200     101
153.6000      84
153.6800     107
153.7600      94
153.8400      75
153.9200     117
154.0000      80
154.0800      71
154.1600     117
154.2400     115
154.3200     114
154.4000      81
154.4800      86
154.5600     104
154.6400      75
154.7200     131
154.8000     104
154.8800      85
154.9600     124
155.0400      91
155.1200      66
155.2000      53
155.2800     119
155.3600     121
155.4400      51
155.5200      91
155.6000      69
155.6800      87
155.7600      92
155.8400     119
155.9200      91
156.0000     121
156.0800     126
156.1600     118
156.2400     130
156.3200      89
156.4000      80
156.4800     107
156.5600      55
156.6400      63
156.7200      70
156.8000      35
156.8800     114
156.9600      58
157.0400      69
157.1200      63
157.2000      70
157.2800      97
157.3600      96
157.4400      80
157.5200      96
157.6000      83
157.6800      73
157.7600      77
157.8400      56
157.9200      62
158.0000     130
158.0800      68
158.1600      77
158.2400      61
158.3200      73
158.4000      98
158.4800     120
158.5600      58
158.6400     109
158.7200     100
158.8000     106
158.8800     116
158.9600      44
159.0400      83
159.1200      75
159.2000      72
159.2800      73
159.3600      65
159.4400      57
159.5200      90
159.6000      34
159.6800      77
159.7600      74
159.8400      58
159.9200      92
160.0000     101
160.0800      90
160.1600      79
160.2400       7
160.3200      77
160.4000      46
160.4800      62
160.5600      91
160.6400     101
160.7200      95
160.8000      61
160.8800      72
160.9600      59
161.0400     106
161.1200      45
161.2000      32
161.2800      39
161.3600      51
161.4400      55
161.5200     116
161.6000      48
161.6800      85
161.7600      53
161.8400      69
161.9200      73
161.9800      73