File: XRD_Tool/log/LDA_sample_name_01_Psi-0_20180623-132304.txt
143.0000   21545
143.0800   20516
143.1600   20850
143.2400   21243
143.3200   20927
143.4000   20394
143.4800   19893
143.5600   18371
143.6400   18477
143.7200   16934
143.8000   15435
143.8800   15324
143.9600   14575
144.0400   13319
144.1200   13139
144.2000   12097
144.2800   11633
144.3600   11439
144.4400   10757
144.5200    9942
144.6000    9595
144.6800    8470
144.7600    8014
144.8400    7502
144.9200    6847
145.0000    6475
145.0800    5881
145.1600    5107
145.2400    4715
145.3200    4091
145.4000    3583
145.4800    3243
145.5600    2907
145.6400    2664
145.7200    2419
145.8000    2012
145.8800    2013
145.9600    1910
146.0400    1601
146.1200    1344
146.2000    1525
146.2800    1304
146.3600    1218
146.4400    1135
146.5200    1085
146.6000     940
146.6800     826
146.7600     882
146.8400     871
146.9200     789
147.0000     875
147.0800     859
147.1600     782
147.2400     729
147.3200     838
147.4000     752
147.4800     780
147.5600     711
147.6400     691
147.7200     673
147.8000     627
147.8800     648
147.9600     612
148.0400     702
148.1200     592
148.2000     589
148.2800     550
148.3600     565
148.4400     612
148.5200     461
148.6000     579
148.6800     507
148.7600     507
148.8400     597
148.9200     416
149.0000     515
149.0800     498
149.1600     501
149.2400     492
149.3200     607
149.4000     520
149.4800     421
149.5600     548
149.6400     432
149.7200     468
149.8000     454
149.8800     458
149.9600     524
150.0400     458
150.1200     449
150.2000     451
150.2800     449
150.3600     394
150.4400     488
150.5200     420
150.6000     417
150.6800     479
150.7600     416
150.8400     466
150.9200     485
151.0000     463
151.0800     470
151.1600     378
151.2400     413
151.3200     439
151.4000     497
151.4800     404
151.5600     346
151.6400     336
151.7200     543
151.8000     440
151.8800     431
151.9600     334
152.0400     370
152.1200     352
152.2000     383
152.2800     328
152.3600     362
152.4400     469
152.5200     326
152.6000     414
152.6800     367
152.7600     419
152.8400     384
152.9200     398
153.0000     349
153.0800     397
153.1600     207
153.2400     391
153.3200     337
153.4000     342
153.4800     422
153.5600     355
153.6400     354
153.7200     381
153.8000     380
153.8800     303
153.9600     275
154.0400     335
154.1200     252
154.2000     297
154.2800     309
154.3600     327
154.4400     308
154.5200     268
154.6000     316
154.6800     318
154.7600     364
154.8400     288
154.9200     350
155.0000     307
155.0800     406
155.1600     279
155.2400     258
155.3200     287
155.4000     249
155.4800     208
155.5600     359
155.6400     289
155.7200     282
155.8000     260
155.8800     198
155.9600     219
156.0400     295
156.1200     222
156.2000     286
156.2800     217
156.3600     165
156.4400     150
156.5200     189
156.6000     288
156.6800     292
156.7600     209
156.8400     339
156.9200     192
157.0000     252
157.0800     219
157.1600     232
157.2400     243
157.3200     230
157.4000     161
157.4800     223
157.5600     283
157.6400     208
157.7200     287
157.8000     152
157.8800     201
157.9600     245
158.0400     225
158.1200     266
158.2000     209
158.2800     240
158.3600     228
158.4400     211
158.5200     230
158.6000     123
158.6800     237
158.7600     177
158.8400     252
158.9200     210
159.0000      98
159.0800     187
159.1600     191
159.2400     244
159.3200     225
159.4000     223
159.4800     202
159.5600     239
159.6400     204
159.7200     210
159.8000     100
159.8800     158
159.9600     224
160.0400     239
160.1200     180
160.2000     251
160.2800     191
160.3600     210
160.4400     262
160.5200     192
160.6000     213
160.6800     235
160.7600     191
160.8400     129
160.9200     248
161.0000     275
161.0800     241
161.1600     124
161.2400     173
161.3200     205
161.4000     206
161.4800     123
161.5600     196
161.6400     188
161.7200     164
161.8000     110
161.8800     232
161.9600     155
162.0400     164
162.1200     224
162.2000     168
162.2800     176
162.3600     123
162.4400     203
162.5200     202
162.6000     157
162.6800     198
162.7600     215
162.8400     160
162.9200     208
163.0000     202
163.0800     137
163.1600     191
163.2400     202
163.3200     186
163.4000     208
163.4800     128
163.5600     169
163.6400     155
163.7200     243
163.8000     137
163.8800     133
163.9600     201
164.0400     160
164.1200     169
164.2000     155
164.2800     237
164.3600     215
164.4400     143
164.5200     128
164.6000     188
164.6800     174
164.7600     145
164.8400     144
164.9200     177
165.0000     169
165.0800     134
165.1600      83
165.2400     171
165.3200     131
165.4000     186
165.4800     125
165.5600     168
165.6400     127
165.7200     211
165.8000     143
165.8800     155
165.9600     114
166.0400      98
166.1200     120
166.2000     134
166.2800      85
166.3600     118
166.4400     155
166.5200      67
166.6000     107
166.6800     153
166.7600     171
166.8400     136
166.9200     145
166.9800     104