File: XRD_Tool/log/LDA_sample_name_56789_Psi-0_20180623-131434.txt
138.0000     637
138.0800     543
138.1600     611
138.2400     568
138.3200     652
138.4000     657
138.4800     773
138.5600     728
138.6400     790
138.7200     690
138.8000     825
138.8800     787
138.9600     798
139.0400     747
139.1200     875
139.2000     815
139.2800     867
139.3600     929
139.4400     987
139.5200    1001
139.6000    1061
139.6800     967
139.7600     895
139.8400     961
139.9200    1014
140.0000    1016
140.0800    1001
140.1600     872
140.2400    1000
140.3200     976
140.4000     953
140.4800     884
140.5600     848
140.6400     874
140.7200     907
140.8000     885
140.8800     912
140.9600     900
141.0400     830
141.1200     838
141.2000     916
141.2800     837
141.3600     749
141.4400     754
141.5200     701
141.6000     785
141.6800     653
141.7600     718
141.8400     727
141.9200     702
142.0000     575
142.0800     635
142.1600     694
142.2400     597
142.3200     662
142.4000     568
142.4800     608
142.5600     590
142.6400     611
142.7200     565
142.8000     580
142.8800     564
142.9600     487
143.0400     499
143.1200     473
143.2000     502
143.2800     419
143.3600     453
143.4400     386
143.5200     432
143.6000     390
143.6800     385
143.7600     410
143.8400     393
143.9200     335
144.0000     283
144.0800     304
144.1600     382
144.2400     376
144.3200     390
144.4000     279
144.4800     288
144.5600     291
144.6400     314
144.7200     325
144.8000     276
144.8800     321
144.9600     293
145.0400     270
145.1200     298
145.2000     243
145.2800     260
145.3600     271
145.4400     304
145.5200     214
145.6000     298
145.6800     317
145.7600     212
145.8400     277
145.9200     254
146.0000     204
146.0800     240
146.1600     153
146.2400     223
146.3200     242
146.4000     189
146.4800     223
146.5600     218
146.6400     208
146.7200     208
146.8000     200
146.8800     200
146.9600     197
147.0400     210
147.1200     147
147.2000     184
147.2800     242
147.3600     191
147.4400     188
147.5200     218
147.6000     260
147.6800     208
147.7600     174
147.8400     240
147.9200     241
148.0000     243
148.0800     137
148.1600     190
148.2400     174
148.3200     218
148.4000     137
148.4800     176
148.5600     179
148.6400     226
148.7200     201
148.8000     236
148.8800     189
148.9600     244
149.0400     240
149.1200     210
149.2000     252
149.2800     185
149.3600     149
149.4400     231
149.5200     209
149.6000     160
149.6800      97
149.7600     201
149.8400     199
149.9200     159
150.0000     154
150.0800     195
150.1600     171
150.2400     194
150.3200     153
150.4000     146
150.4800     145
150.5600     169
150.6400     207
150.7200     192
150.8000     188
150.8800     175
150.9600      91
151.0400     158
151.1200     155
151.2000     122
151.2800     153
151.3600     180
151.4400     210
151.5200     203
151.6000     153
151.6800     137
151.7600     173
151.8400     175
151.9200     183
152.0000     128
152.0800     146
152.1600      74
152.2400     181
152.3200     221
152.4000     141
152.4800     130
152.5600     150
152.6400     106
152.7200     143
152.8000     187
152.8800     141
152.9600     150
153.0400     170
153.1200     157
153.2000     136
153.2800     138
153.3600     178
153.4400     192
153.5200     114
153.6000     169
153.6800     141
153.7600     137
153.8400     140
153.9200     192
154.0000     111
154.0800      86
154.1600     149
154.2400     118
154.3200      97
154.4000     106
154.4800     115
154.5600     154
154.6400     151
154.7200     176
154.8000     117
154.8800     109
154.9600      96
155.0400     164
155.1200     138
155.2000     152
155.2800     154
155.3600     120
155.4400     139
155.5200      68
155.6000     156
155.6800     174
155.7600     165
155.8400     218
155.9200     104
156.0000     108
156.0800     122
156.1600     196
156.2400      78
156.3200     167
156.4000     123
156.4800     113
156.5600     139
156.6400     131
156.7200      83
156.8000     115
156.8800     148
156.9600      24
157.0400      82
157.1200      79
157.2000      72
157.2800      99
157.3600     154
157.4400      72
157.5200      95
157.6000     135
157.6800     115
157.7600      89
157.8400     146
157.9200     125
158.0000     117
158.0800     116
158.1600     114
158.2400     104
158.3200     168
158.4000     145
158.4800      89
158.5600     131
158.6400     129
158.7200     108
158.8000     104
158.8800     170
158.9600     149
159.0400      87
159.1200     184
159.2000      76
159.2800     111
159.3600     122
159.4400     137
159.5200     119
159.6000     121
159.6800     114
159.7600      70
159.8400     120
159.9200      94
160.0000      63
160.0800     113
160.1600     111
160.2400     103
160.3200     141
160.4000      68
160.4800     186
160.5600      57
160.6400      99
160.7200     154
160.8000      99
160.8800     109
160.9600      48
161.0400      58
161.1200      92
161.2000     116
161.2800      81
161.3600     160
161.4400     111
161.5200      26
161.6000      37
161.6800      51
161.7600      78
161.8400      80
161.9200     144
161.9800     125