File: XRD_Tool/log/LDA_sample_name_56789_Psi-0_20180623-131511.txt
138.0000     250
138.0800     269
138.1600     290
138.2400     295
138.3200     268
138.4000     289
138.4800     323
138.5600     277
138.6400     321
138.7200     289
138.8000     289
138.8800     313
138.9600     408
139.0400     301
139.1200     363
139.2000     366
139.2800     322
139.3600     343
139.4400     401
139.5200     337
139.6000     364
139.6800     396
139.7600     409
139.8400     437
139.9200     424
140.0000     495
140.0800     524
140.1600     481
140.2400     499
140.3200     482
140.4000     562
140.4800     603
140.5600     580
140.6400     648
140.7200     701
140.8000     671
140.8800     699
140.9600     807
141.0400     719
141.1200     808
141.2000     975
141.2800     906
141.3600     996
141.4400    1025
141.5200    1239
141.6000    1150
141.6800    1374
141.7600    1490
141.8400    1564
141.9200    1608
142.0000    1857
142.0800    2085
142.1600    2012
142.2400    2099
142.3200    2548
142.4000    2687
142.4800    2632
142.5600    2886
142.6400    2823
142.7200    2827
142.8000    2773
142.8800    2572
142.9600    2743
143.0400    2646
143.1200    2480
143.2000    2476
143.2800    2318
143.3600    2266
143.4400    2036
143.5200    2063
143.6000    1852
143.6800    1755
143.7600    1799
143.8400    1596
143.9200    1377
144.0000    1362
144.0800    1358
144.1600    1263
144.2400    1190
144.3200    1136
144.4000    1026
144.4800     916
144.5600     861
144.6400     933
144.7200     698
144.8000     709
144.8800     711
144.9600     547
145.0400     575
145.1200     488
145.2000     501
145.2800     425
145.3600     441
145.4400     387
145.5200     338
145.6000     319
145.6800     265
145.7600     264
145.8400     291
145.9200     222
146.0000     227
146.0800     229
146.1600     210
146.2400     223
146.3200     174
146.4000     171
146.4800     177
146.5600     111
146.6400     125
146.7200     179
146.8000     160
146.8800     131
146.9600     138
147.0400     195
147.1200     167
147.2000     138
147.2800     114
147.3600     163
147.4400     182
147.5200     174
147.6000     157
147.6800     126
147.7600     132
147.8400     118
147.9200     140
148.0000     137
148.0800     163
148.1600     156
148.2400     137
148.3200     131
148.4000     132
148.4800     140
148.5600     117
148.6400      97
148.7200     132
148.8000     146
148.8800     106
148.9600     110
149.0400     111
149.1200     114
149.2000     118
149.2800     113
149.3600      56
149.4400     139
149.5200     137
149.6000     145
149.6800      84
149.7600     102
149.8400     104
149.9200      64
150.0000     145
150.0800     107
150.1600     131
150.2400      85
150.3200     144
150.4000      82
150.4800     151
150.5600     139
150.6400     120
150.7200     123
150.8000     132
150.8800      96
150.9600     112
151.0400      92
151.1200     144
151.2000     107
151.2800     127
151.3600     128
151.4400      85
151.5200     109
151.6000     114
151.6800     102
151.7600     145
151.8400     156
151.9200      98
152.0000      62
152.0800     109
152.1600      54
152.2400     115
152.3200     155
152.4000     130
152.4800     104
152.5600     100
152.6400     119
152.7200      78
152.8000     150
152.8800     135
152.9600     111
153.0400     119
153.1200     124
153.2000     109
153.2800     139
153.3600      94
153.4400     136
153.5200      92
153.6000     100
153.6800      91
153.7600     133
153.8400      68
153.9200      96
154.0000      97
154.0800      65
154.1600      92
154.2400      79
154.3200      99
154.4000      97
154.4800     103
154.5600      41
154.6400     116
154.7200     106
154.8000      97
154.8800      62
154.9600      70
155.0400      73
155.1200      75
155.2000      75
155.2800      92
155.3600      90
155.4400      78
155.5200      67
155.6000     102
155.6800      74
155.7600      72
155.8400      97
155.9200      57
156.0000      72
156.0800      65
156.1600      61
156.2400      80
156.3200      69
156.4000      23
156.4800      94
156.5600      58
156.6400      52
156.7200     102
156.8000      63
156.8800      77
156.9600      89
157.0400     100
157.1200     106
157.2000     116
157.2800      70
157.3600      56
157.4400      55
157.5200      88
157.6000      58
157.6800     115
157.7600      64
157.8400     122
157.9200      90
158.0000      96
158.0800      54
158.1600      78
158.2400      55
158.3200      91
158.4000     124
158.4800      65
158.5600      44
158.6400     123
158.7200      72
158.8000      90
158.8800      92
158.9600      69
159.0400      61
159.1200      70
159.2000      96
159.2800      67
159.3600      92
159.4400      65
159.5200      67
159.6000      88
159.6800      62
159.7600      63
159.8400      32
159.9200      62
160.0000      68
160.0800      48
160.1600     115
160.2400      76
160.3200      70
160.4000      90
160.4800      67
160.5600      50
160.6400      66
160.7200      56
160.8000      94
160.8800      35
160.9600      62
161.0400      68
161.1200      87
161.2000      61
161.2800      55
161.3600      76
161.4400      52
161.5200      57
161.6000      39
161.6800      14
161.7600      59
161.8400      31
161.9200      58
161.9800      84