File: XRD_Tool/log/LDA_sample_name_56789_Psi-24_20180623-131346.txt
138.0000     110
138.0800      97
138.1600     111
138.2400      73
138.3200      82
138.4000      80
138.4800     120
138.5600     125
138.6400      90
138.7200     130
138.8000      86
138.8800      93
138.9600     109
139.0400      52
139.1200     108
139.2000      90
139.2800      79
139.3600      79
139.4400      80
139.5200      89
139.6000      67
139.6800      57
139.7600      50
139.8400      81
139.9200      97
140.0000      54
140.0800     113
140.1600     128
140.2400      86
140.3200      52
140.4000      95
140.4800      49
140.5600      74
140.6400      98
140.7200     128
140.8000     105
140.8800      68
140.9600      86
141.0400      70
141.1200      91
141.2000     137
141.2800      84
141.3600      68
141.4400      48
141.5200      74
141.6000      80
141.6800     129
141.7600     101
141.8400      95
141.9200      59
142.0000      97
142.0800      59
142.1600      82
142.2400      37
142.3200      92
142.4000     102
142.4800      77
142.5600      82
142.6400      70
142.7200      76
142.8000     109
142.8800      51
142.9600      84
143.0400      79
143.1200      63
143.2000      93
143.2800      86
143.3600      85
143.4400      84
143.5200      91
143.6000      64
143.6800      84
143.7600      65
143.8400     119
143.9200      92
144.0000      88
144.0800      87
144.1600     108
144.2400      72
144.3200     103
144.4000      50
144.4800     129
144.5600     113
144.6400      65
144.7200     103
144.8000      90
144.8800     124
144.9600     133
145.0400      64
145.1200      94
145.2000      46
145.2800      77
145.3600      94
145.4400      72
145.5200      65
145.6000      75
145.6800     103
145.7600      86
145.8400      71
145.9200      79
146.0000     104
146.0800      93
146.1600      87
146.2400      59
146.3200     102
146.4000     101
146.4800      91
146.5600      44
146.6400      85
146.7200      88
146.8000      95
146.8800      80
146.9600      71
147.0400      78
147.1200      91
147.2000      74
147.2800      97
147.3600      91
147.4400     102
147.5200      59
147.6000      77
147.6800      68
147.7600      81
147.8400      72
147.9200      79
148.0000      67
148.0800     105
148.1600     117
148.2400     128
148.3200      65
148.4000      74
148.4800      93
148.5600      88
148.6400      70
148.7200      46
148.8000      84
148.8800      87
148.9600      67
149.0400      86
149.1200      94
149.2000      72
149.2800     112
149.3600      66
149.4400      93
149.5200      89
149.6000      70
149.6800      89
149.7600      81
149.8400     105
149.9200      75
150.0000      77
150.0800      75
150.1600      91
150.2400      93
150.3200     127
150.4000      58
150.4800      91
150.5600      81
150.6400     100
150.7200      81
150.8000     108
150.8800      58
150.9600      98
151.0400      97
151.1200      83
151.2000      47
151.2800     141
151.3600      52
151.4400     101
151.5200     117
151.6000      90
151.6800      85
151.7600      70
151.8400      64
151.9200      65
152.0000      91
152.0800      76
152.1600      93
152.2400      93
152.3200     108
152.4000     106
152.4800      13
152.5600     130
152.6400      80
152.7200      57
152.8000      64
152.8800      97
152.9600      95
153.0400      92
153.1200      68
153.2000      85
153.2800      65
153.3600      96
153.4400      64
153.5200      69
153.6000      81
153.6800      82
153.7600      76
153.8400     131
153.9200      59
154.0000      64
154.0800      77
154.1600      67
154.2400      93
154.3200      71
154.4000     117
154.4800     106
154.5600      87
154.6400      49
154.7200      75
154.8000     119
154.8800     115
154.9600      81
155.0400     111
155.1200      73
155.2000      55
155.2800      88
155.3600      63
155.4400      90
155.5200     106
155.6000      92
155.6800      84
155.7600     101
155.8400      89
155.9200      74
156.0000      76
156.0800     114
156.1600      66
156.2400      47
156.3200      80
156.4000      55
156.4800      81
156.5600      66
156.6400      37
156.7200      88
156.8000      65
156.8800      53
156.9600      92
157.0400      72
157.1200      22
157.2000      64
157.2800     136
157.3600      64
157.4400      81
157.5200      95
157.6000      64
157.6800      66
157.7600      98
157.8400     107
157.9200      56
158.0000     113
158.0800      73
158.1600      51
158.2400      68
158.3200      51
158.4000      62
158.4800      89
158.5600     121
158.6400      57
158.7200      85
158.8000      81
158.8800      51
158.9600      48
159.0400      32
159.1200      55
159.2000      78
159.2800      54
159.3600      59
159.4400      59
159.5200      43
159.6000      50
159.6800      77
159.7600      87
159.8400      86
159.9200      54
160.0000      12
160.0800      62
160.1600      49
160.2400      53
160.3200      29
160.4000      55
160.4800      43
160.5600      34
160.6400      64
160.7200      42
160.8000      54
160.8800      78
160.9600      78
161.0400      79
161.1200      85
161.2000      35
161.2800      49
161.3600      67
161.4400      47
161.5200      51
161.6000      18
161.6800      45
161.7600      65
161.8400      59
161.9200      49
161.9800      31