File: XRD_Tool/log/LDA_sample_name_01_Psi-45_20180623-132346.txt
143.0000     231
143.0800     270
143.1600     157
143.2400     256
143.3200     221
143.4000     235
143.4800     242
143.5600     176
143.6400     199
143.7200     230
143.8000     248
143.8800     193
143.9600     211
144.0400     154
144.1200     179
144.2000     233
144.2800     218
144.3600     205
144.4400     239
144.5200     235
144.6000     210
144.6800     159
144.7600     203
144.8400     200
144.9200     232
145.0000     276
145.0800     240
145.1600     246
145.2400     194
145.3200     201
145.4000     252
145.4800     261
145.5600     253
145.6400     250
145.7200     254
145.8000     234
145.8800     150
145.9600     205
146.0400     219
146.1200     303
146.2000     282
146.2800     217
146.3600     180
146.4400     293
146.5200     231
146.6000     144
146.6800     207
146.7600     245
146.8400     259
146.9200     211
147.0000     208
147.0800     208
147.1600     196
147.2400     181
147.3200     280
147.4000     272
147.4800     212
147.5600     257
147.6400     225
147.7200     269
147.8000     200
147.8800     210
147.9600     230
148.0400     256
148.1200     217
148.2000     209
148.2800     194
148.3600     239
148.4400     237
148.5200     185
148.6000     238
148.6800     249
148.7600     181
148.8400     289
148.9200     167
149.0000     245
149.0800     207
149.1600     251
149.2400     222
149.3200     235
149.4000     202
149.4800     240
149.5600     272
149.6400     241
149.7200     199
149.8000     289
149.8800     219
149.9600     266
150.0400     203
150.1200     254
150.2000     191
150.2800     217
150.3600     206
150.4400     233
150.5200     223
150.6000     175
150.6800     234
150.7600     232
150.8400     251
150.9200     244
151.0000     276
151.0800     218
151.1600     209
151.2400     164
151.3200     194
151.4000     190
151.4800     153
151.5600     203
151.6400     219
151.7200     194
151.8000     230
151.8800     187
151.9600     247
152.0400     186
152.1200     236
152.2000     192
152.2800     197
152.3600     258
152.4400     200
152.5200     222
152.6000     250
152.6800     230
152.7600     180
152.8400     250
152.9200     240
153.0000     213
153.0800     220
153.1600     148
153.2400     218
153.3200     230
153.4000     241
153.4800     242
153.5600     178
153.6400     262
153.7200     198
153.8000     230
153.8800     179
153.9600     169
154.0400     249
154.1200     172
154.2000     184
154.2800     186
154.3600     161
154.4400     215
154.5200     243
154.6000     219
154.6800     164
154.7600     167
154.8400     241
154.9200     272
155.0000     216
155.0800     216
155.1600     165
155.2400     186
155.3200     275
155.4000     264
155.4800     230
155.5600     236
155.6400     158
155.7200     121
155.8000     153
155.8800     184
155.9600     153
156.0400     181
156.1200     163
156.2000     206
156.2800     229
156.3600     211
156.4400     236
156.5200     177
156.6000     251
156.6800     182
156.7600     199
156.8400     184
156.9200     169
157.0000     218
157.0800     187
157.1600     164
157.2400     190
157.3200     144
157.4000     198
157.4800     186
157.5600     203
157.6400     231
157.7200     172
157.8000     177
157.8800     221
157.9600     245
158.0400     235
158.1200     185
158.2000     107
158.2800     192
158.3600     231
158.4400     246
158.5200     210
158.6000     215
158.6800     261
158.7600     251
158.8400     242
158.9200     225
159.0000     139
159.0800     193
159.1600     193
159.2400     214
159.3200     192
159.4000     162
159.4800     229
159.5600     133
159.6400     183
159.7200     155
159.8000     214
159.8800     189
159.9600     190
160.0400     160
160.1200     175
160.2000     128
160.2800     180
160.3600     139
160.4400     216
160.5200     147
160.6000     171
160.6800     218
160.7600     247
160.8400     167
160.9200     157
161.0000     204
161.0800     201
161.1600     206
161.2400     169
161.3200     242
161.4000     165
161.4800     184
161.5600      95
161.6400     200
161.7200     149
161.8000     153
161.8800     146
161.9600     178
162.0400     165
162.1200     156
162.2000     198
162.2800     122
162.3600     194
162.4400     181
162.5200     132
162.6000     111
162.6800     203
162.7600     112
162.8400     160
162.9200     134
163.0000     174
163.0800     124
163.1600     135
163.2400      83
163.3200     136
163.4000     135
163.4800     110
163.5600     189
163.6400     182
163.7200     165
163.8000     121
163.8800     174
163.9600     183
164.0400     193
164.1200     137
164.2000     146
164.2800     149
164.3600     226
164.4400     112
164.5200     119
164.6000     108
164.6800      99
164.7600     154
164.8400     173
164.9200     129
165.0000     113
165.0800     211
165.1600     122
165.2400     163
165.3200     130
165.4000     107
165.4800     136
165.5600     105
165.6400      97
165.7200     148
165.8000      74
165.8800     158
165.9600      87
166.0400     210
166.1200     144
166.2000     115
166.2800      70
166.3600      97
166.4400     133
166.5200     119
166.6000     112
166.6800      71
166.7600     181
166.8400      48
166.9200     102
166.9800      79